   DEPTH          CALI       S-SONIC   P-SONIC      GR           LITH    RESISTIVITY     NPHI       POROS        RHOB        SWARCH       SW_I         VP        VSH          VS
   8744.5000   -999.2500   -999.2500   -999.2500     87.3611   -999.2500   -999.2500   -999.2500   -999.2500   -999.2500   -999.2500   -999.2500   -999.2500   -999.2500   -999.2500
   8745.0000   -999.2500   -999.2500   -999.2500     86.6460   -999.2500   -999.2500   -999.2500   -999.2500   -999.2500   -999.2500   -999.2500   -999.2500   -999.2500   -999.2500
   8745.5000   -999.2500   -999.2500   -999.2500     78.5065   -999.2500   -999.2500   -999.2500   -999.2500   -999.2500   -999.2500   -999.2500   -999.2500   -999.2500   -999.2500
   8746.0000   -999.2500   -999.2500   -999.2500     78.2807   -999.2500   -999.2500   -999.2500   -999.2500   -999.2500   -999.2500   -999.2500   -999.2500   -999.2500   -999.2500
   8746.5000   -999.2500   -999.2500   -999.2500     79.0308   -999.2500   -999.2500   -999.2500   -999.2500   -999.2500   -999.2500   -999.2500   -999.2500   -999.2500   -999.2500
   8747.0000   -999.2500   -999.2500   -999.2500     76.5580   -999.2500   -999.2500   -999.2500   -999.2500   -999.2500   -999.2500   -999.2500   -999.2500   -999.2500   -999.2500
   8747.5000   -999.2500   -999.2500   -999.2500     81.3348   -999.2500   -999.2500   -999.2500   -999.2500   -999.2500   -999.2500   -999.2500   -999.2500   -999.2500   -999.2500
   8748.0000   -999.2500   -999.2500   -999.2500     78.9817   -999.2500   -999.2500   -999.2500   -999.2500   -999.2500   -999.2500   -999.2500   -999.2500   -999.2500   -999.2500
   8748.5000   -999.2500   -999.2500   -999.2500     78.9271   -999.2500   -999.2500   -999.2500   -999.2500   -999.2500   -999.2500   -999.2500   -999.2500   -999.2500   -999.2500
   8749.0000   -999.2500   -999.2500   -999.2500     89.6760   -999.2500   -999.2500   -999.2500   -999.2500   -999.2500   -999.2500   -999.2500   -999.2500   -999.2500   -999.2500
   8749.5000   -999.2500   -999.2500   -999.2500     87.3994   -999.2500   -999.2500   -999.2500   -999.2500   -999.2500   -999.2500   -999.2500   -999.2500   -999.2500   -999.2500
   8750.0000   -999.2500   -999.2500   -999.2500     70.5830   -999.2500   -999.2500   -999.2500   -999.2500   -999.2500   -999.2500   -999.2500   -999.2500   -999.2500   -999.2500
   8750.5000   -999.2500   -999.2500   -999.2500     62.8351   -999.2500   -999.2500   -999.2500   -999.2500   -999.2500   -999.2500   -999.2500   -999.2500   -999.2500   -999.2500
   8751.0000   -999.2500   -999.2500   -999.2500     61.8536   -999.2500   -999.2500   -999.2500   -999.2500   -999.2500   -999.2500   -999.2500   -999.2500   -999.2500   -999.2500
   8751.5000   -999.2500   -999.2500   -999.2500     65.7388   -999.2500   -999.2500   -999.2500   -999.2500   -999.2500   -999.2500   -999.2500   -999.2500   -999.2500   -999.2500
   8752.0000   -999.2500   -999.2500   -999.2500     70.1339   -999.2500   -999.2500   -999.2500   -999.2500   -999.2500   -999.2500   -999.2500   -999.2500   -999.2500   -999.2500
   8752.5000   -999.2500   -999.2500   -999.2500     67.9218   -999.2500   -999.2500   -999.2500   -999.2500   -999.2500   -999.2500   -999.2500   -999.2500   -999.2500   -999.2500
   8753.0000   -999.2500   -999.2500   -999.2500     70.1663   -999.2500   -999.2500   -999.2500   -999.2500   -999.2500   -999.2500   -999.2500   -999.2500   -999.2500   -999.2500
   8753.5000   -999.2500   -999.2500   -999.2500     72.3246   -999.2500   -999.2500   -999.2500   -999.2500   -999.2500   -999.2500   -999.2500   -999.2500   -999.2500   -999.2500
   8754.0000   -999.2500   -999.2500   -999.2500     73.1045   -999.2500   -999.2500   -999.2500   -999.2500   -999.2500   -999.2500   -999.2500   -999.2500   -999.2500   -999.2500
   8754.5000   -999.2500   -999.2500   -999.2500     76.5074   -999.2500   -999.2500   -999.2500   -999.2500   -999.2500   -999.2500   -999.2500   -999.2500   -999.2500   -999.2500
   8755.0000   -999.2500   -999.2500   -999.2500     73.0934   -999.2500   -999.2500   -999.2500   -999.2500   -999.2500   -999.2500   -999.2500   -999.2500   -999.2500   -999.2500
   8755.5000   -999.2500   -999.2500   -999.2500     72.2141   -999.2500   -999.2500   -999.2500   -999.2500   -999.2500   -999.2500   -999.2500   -999.2500   -999.2500   -999.2500
   8756.0000   -999.2500   -999.2500   -999.2500     72.2630   -999.2500   -999.2500   -999.2500   -999.2500   -999.2500   -999.2500   -999.2500   -999.2500   -999.2500   -999.2500
   8756.5000   -999.2500   -999.2500   -999.2500     64.5509   -999.2500   -999.2500   -999.2500   -999.2500   -999.2500   -999.2500   -999.2500   -999.2500   -999.2500   -999.2500
   8757.0000   -999.2500   -999.2500   -999.2500     59.9800   -999.2500   -999.2500   -999.2500   -999.2500   -999.2500   -999.2500   -999.2500   -999.2500   -999.2500   -999.2500
   8757.5000   -999.2500   -999.2500   -999.2500     55.7427   -999.2500   -999.2500   -999.2500   -999.2500   -999.2500   -999.2500   -999.2500   -999.2500   -999.2500   -999.2500
   8758.0000   -999.2500   -999.2500   -999.2500     56.9449   -999.2500   -999.2500   -999.2500   -999.2500   -999.2500   -999.2500   -999.2500   -999.2500   -999.2500   -999.2500
   8758.5000   -999.2500   -999.2500   -999.2500     53.3375   -999.2500   -999.2500   -999.2500   -999.2500   -999.2500   -999.2500   -999.2500   -999.2500   -999.2500   -999.2500
   8759.0000   -999.2500   -999.2500   -999.2500     59.6778   -999.2500   -999.2500   -999.2500   -999.2500   -999.2500   -999.2500   -999.2500   -999.2500   -999.2500   -999.2500
   8759.5000   -999.2500   -999.2500   -999.2500     59.6469   -999.2500   -999.2500   -999.2500   -999.2500   -999.2500   -999.2500   -999.2500   -999.2500   -999.2500   -999.2500
   8760.0000   -999.2500   -999.2500   -999.2500     52.9618   -999.2500   -999.2500   -999.2500   -999.2500   -999.2500   -999.2500   -999.2500   -999.2500   -999.2500   -999.2500
   8760.5000   -999.2500   -999.2500   -999.2500     56.4316   -999.2500   -999.2500   -999.2500   -999.2500   -999.2500   -999.2500   -999.2500   -999.2500   -999.2500   -999.2500
   8761.0000   -999.2500   -999.2500   -999.2500     59.9698   -999.2500   -999.2500   -999.2500   -999.2500   -999.2500   -999.2500   -999.2500   -999.2500   -999.2500   -999.2500
   8761.5000   -999.2500   -999.2500   -999.2500     58.9290   -999.2500   -999.2500   -999.2500   -999.2500   -999.2500   -999.2500   -999.2500   -999.2500   -999.2500   -999.2500
   8762.0000   -999.2500   -999.2500   -999.2500     58.8709   -999.2500   -999.2500   -999.2500   -999.2500   -999.2500   -999.2500   -999.2500   -999.2500   -999.2500   -999.2500
   8762.5000   -999.2500   -999.2500   -999.2500     57.4333   -999.2500   -999.2500   -999.2500   -999.2500   -999.2500   -999.2500   -999.2500   -999.2500   -999.2500   -999.2500
   8763.0000   -999.2500   -999.2500   -999.2500     58.5905   -999.2500   -999.2500   -999.2500   -999.2500   -999.2500   -999.2500   -999.2500   -999.2500   -999.2500   -999.2500
   8763.5000   -999.2500   -999.2500   -999.2500     62.5118   -999.2500   -999.2500   -999.2500   -999.2500   -999.2500   -999.2500   -999.2500   -999.2500   -999.2500   -999.2500
   8764.0000   -999.2500   -999.2500   -999.2500     62.5362   -999.2500   -999.2500   -999.2500   -999.2500   -999.2500   -999.2500   -999.2500   -999.2500   -999.2500   -999.2500
   8764.5000   -999.2500   -999.2500   -999.2500     61.5069   -999.2500   -999.2500   -999.2500   -999.2500   -999.2500   -999.2500   -999.2500   -999.2500   -999.2500   -999.2500
   8765.0000   -999.2500   -999.2500   -999.2500     59.6913   -999.2500   -999.2500   -999.2500   -999.2500   -999.2500   -999.2500   -999.2500   -999.2500   -999.2500   -999.2500
   8765.5000   -999.2500   -999.2500   -999.2500     59.3607   -999.2500   -999.2500   -999.2500   -999.2500   -999.2500   -999.2500   -999.2500   -999.2500   -999.2500   -999.2500
   8766.0000   -999.2500   -999.2500   -999.2500     55.9692   -999.2500   -999.2500   -999.2500   -999.2500   -999.2500   -999.2500   -999.2500   -999.2500   -999.2500   -999.2500
   8766.5000   -999.2500   -999.2500   -999.2500     58.9392   -999.2500   -999.2500   -999.2500   -999.2500   -999.2500   -999.2500   -999.2500   -999.2500   -999.2500   -999.2500
   8767.0000   -999.2500   -999.2500   -999.2500     58.9658   -999.2500   -999.2500   -999.2500   -999.2500   -999.2500   -999.2500   -999.2500   -999.2500   -999.2500   -999.2500
   8767.5000   -999.2500   -999.2500   -999.2500     60.3280   -999.2500   -999.2500   -999.2500   -999.2500   -999.2500   -999.2500   -999.2500   -999.2500   -999.2500   -999.2500
   8768.0000   -999.2500   -999.2500   -999.2500     59.5021   -999.2500   -999.2500   -999.2500   -999.2500   -999.2500   -999.2500   -999.2500   -999.2500   -999.2500   -999.2500
   8768.5000   -999.2500   -999.2500   -999.2500     53.2148   -999.2500   -999.2500   -999.2500   -999.2500   -999.2500   -999.2500   -999.2500   -999.2500   -999.2500   -999.2500
   8769.0000   -999.2500   -999.2500   -999.2500     51.2420   -999.2500   -999.2500   -999.2500   -999.2500   -999.2500   -999.2500   -999.2500   -999.2500   -999.2500   -999.2500
   8769.5000   -999.2500   -999.2500   -999.2500     55.1454   -999.2500   -999.2500   -999.2500   -999.2500   -999.2500   -999.2500   -999.2500   -999.2500   -999.2500   -999.2500
   8770.0000   -999.2500   -999.2500   -999.2500     59.9602   -999.2500   -999.2500   -999.2500   -999.2500   -999.2500   -999.2500   -999.2500   -999.2500   -999.2500   -999.2500
   8770.5000   -999.2500   -999.2500   -999.2500     63.7977   -999.2500   -999.2500   -999.2500   -999.2500   -999.2500   -999.2500   -999.2500   -999.2500   -999.2500   -999.2500
   8771.0000   -999.2500   -999.2500   -999.2500     68.5795   -999.2500   -999.2500   -999.2500   -999.2500   -999.2500   -999.2500   -999.2500   -999.2500   -999.2500   -999.2500
   8771.5000   -999.2500   -999.2500   -999.2500     69.8631   -999.2500   -999.2500   -999.2500   -999.2500   -999.2500   -999.2500   -999.2500   -999.2500   -999.2500   -999.2500
   8772.0000   -999.2500   -999.2500   -999.2500     69.5266   -999.2500   -999.2500   -999.2500   -999.2500   -999.2500   -999.2500   -999.2500   -999.2500   -999.2500   -999.2500
   8772.5000   -999.2500   -999.2500   -999.2500     68.8384   -999.2500   -999.2500   -999.2500   -999.2500   -999.2500   -999.2500   -999.2500   -999.2500   -999.2500   -999.2500
   8773.0000   -999.2500   -999.2500   -999.2500     66.6167   -999.2500   -999.2500   -999.2500   -999.2500   -999.2500   -999.2500   -999.2500   -999.2500   -999.2500   -999.2500
   8773.5000   -999.2500   -999.2500   -999.2500     68.3309   -999.2500   -999.2500   -999.2500   -999.2500   -999.2500   -999.2500   -999.2500   -999.2500   -999.2500   -999.2500
   8774.0000   -999.2500   -999.2500   -999.2500     69.6305   -999.2500   -999.2500   -999.2500   -999.2500   -999.2500   -999.2500   -999.2500   -999.2500   -999.2500   -999.2500
   8774.5000   -999.2500   -999.2500   -999.2500     70.3899   -999.2500   -999.2500   -999.2500   -999.2500   -999.2500   -999.2500   -999.2500   -999.2500   -999.2500   -999.2500
   8775.0000   -999.2500   -999.2500   -999.2500     75.5518   -999.2500   -999.2500   -999.2500   -999.2500   -999.2500   -999.2500   -999.2500   -999.2500   -999.2500   -999.2500
   8775.5000   -999.2500   -999.2500   -999.2500     77.1432   -999.2500   -999.2500   -999.2500   -999.2500   -999.2500   -999.2500   -999.2500   -999.2500   -999.2500   -999.2500
   8776.0000   -999.2500   -999.2500   -999.2500     72.2268   -999.2500   -999.2500   -999.2500   -999.2500   -999.2500   -999.2500   -999.2500   -999.2500   -999.2500   -999.2500
   8776.5000   -999.2500   -999.2500   -999.2500     71.6906   -999.2500   -999.2500   -999.2500   -999.2500   -999.2500   -999.2500   -999.2500   -999.2500   -999.2500   -999.2500
   8777.0000   -999.2500   -999.2500   -999.2500     73.7653   -999.2500   -999.2500   -999.2500   -999.2500   -999.2500   -999.2500   -999.2500   -999.2500   -999.2500   -999.2500
   8777.5000   -999.2500   -999.2500   -999.2500     67.8455   -999.2500   -999.2500   -999.2500   -999.2500   -999.2500   -999.2500   -999.2500   -999.2500   -999.2500   -999.2500
   8778.0000   -999.2500   -999.2500   -999.2500     66.3810   -999.2500   -999.2500   -999.2500   -999.2500   -999.2500   -999.2500   -999.2500   -999.2500   -999.2500   -999.2500
   8778.5000   -999.2500   -999.2500   -999.2500     63.1183   -999.2500   -999.2500   -999.2500   -999.2500   -999.2500   -999.2500   -999.2500   -999.2500   -999.2500   -999.2500
   8779.0000   -999.2500   -999.2500   -999.2500     62.5696   -999.2500   -999.2500   -999.2500   -999.2500   -999.2500   -999.2500   -999.2500   -999.2500   -999.2500   -999.2500
   8779.5000   -999.2500   -999.2500   -999.2500     65.9545   -999.2500   -999.2500   -999.2500   -999.2500   -999.2500   -999.2500   -999.2500   -999.2500   -999.2500   -999.2500
   8780.0000   -999.2500   -999.2500   -999.2500     70.1960   -999.2500   -999.2500   -999.2500   -999.2500   -999.2500   -999.2500   -999.2500   -999.2500   -999.2500   -999.2500
   8780.5000   -999.2500   -999.2500   -999.2500     74.8435   -999.2500   -999.2500   -999.2500   -999.2500   -999.2500   -999.2500   -999.2500   -999.2500   -999.2500   -999.2500
   8781.0000   -999.2500   -999.2500   -999.2500     70.5708   -999.2500   -999.2500   -999.2500   -999.2500   -999.2500   -999.2500   -999.2500   -999.2500   -999.2500   -999.2500
   8781.5000   -999.2500   -999.2500   -999.2500     65.4021   -999.2500   -999.2500   -999.2500   -999.2500   -999.2500   -999.2500   -999.2500   -999.2500   -999.2500   -999.2500
   8782.0000   -999.2500   -999.2500   -999.2500     63.6815   -999.2500   -999.2500   -999.2500   -999.2500   -999.2500   -999.2500   -999.2500   -999.2500   -999.2500   -999.2500
   8782.5000   -999.2500   -999.2500   -999.2500     61.6563   -999.2500   -999.2500   -999.2500   -999.2500   -999.2500   -999.2500   -999.2500   -999.2500   -999.2500   -999.2500
   8783.0000   -999.2500   -999.2500   -999.2500     55.3923   -999.2500   -999.2500   -999.2500   -999.2500   -999.2500   -999.2500   -999.2500   -999.2500   -999.2500   -999.2500
   8783.5000   -999.2500   -999.2500   -999.2500     48.6056   -999.2500   -999.2500   -999.2500   -999.2500   -999.2500   -999.2500   -999.2500   -999.2500   -999.2500   -999.2500
   8784.0000   -999.2500   -999.2500   -999.2500     54.6798   -999.2500   -999.2500   -999.2500   -999.2500   -999.2500   -999.2500   -999.2500   -999.2500   -999.2500   -999.2500
   8784.5000   -999.2500   -999.2500   -999.2500     54.7883   -999.2500   -999.2500   -999.2500   -999.2500   -999.2500   -999.2500   -999.2500   -999.2500   -999.2500   -999.2500
   8785.0000   -999.2500   -999.2500   -999.2500     54.9929   -999.2500   -999.2500   -999.2500   -999.2500   -999.2500   -999.2500   -999.2500   -999.2500   -999.2500   -999.2500
   8785.5000   -999.2500   -999.2500   -999.2500     55.0679   -999.2500   -999.2500   -999.2500   -999.2500   -999.2500   -999.2500   -999.2500   -999.2500   -999.2500   -999.2500
   8786.0000   -999.2500   -999.2500   -999.2500     55.3515   -999.2500   -999.2500   -999.2500   -999.2500   -999.2500   -999.2500   -999.2500   -999.2500   -999.2500   -999.2500
   8786.5000   -999.2500   -999.2500   -999.2500     56.4436   -999.2500   -999.2500   -999.2500   -999.2500   -999.2500   -999.2500   -999.2500   -999.2500   -999.2500   -999.2500
   8787.0000   -999.2500   -999.2500   -999.2500     53.3004   -999.2500   -999.2500   -999.2500   -999.2500   -999.2500   -999.2500   -999.2500   -999.2500   -999.2500   -999.2500
   8787.5000   -999.2500   -999.2500   -999.2500     57.5950   -999.2500   -999.2500   -999.2500   -999.2500   -999.2500   -999.2500   -999.2500   -999.2500   -999.2500   -999.2500
   8788.0000   -999.2500   -999.2500   -999.2500     62.2814   -999.2500   -999.2500   -999.2500   -999.2500   -999.2500   -999.2500   -999.2500   -999.2500   -999.2500   -999.2500
   8788.5000   -999.2500   -999.2500   -999.2500     67.8733   -999.2500   -999.2500   -999.2500   -999.2500   -999.2500   -999.2500   -999.2500   -999.2500   -999.2500   -999.2500
   8789.0000   -999.2500   -999.2500   -999.2500     65.9158   -999.2500   -999.2500   -999.2500   -999.2500   -999.2500   -999.2500   -999.2500   -999.2500   -999.2500   -999.2500
   8789.5000   -999.2500   -999.2500   -999.2500     63.9315   -999.2500   -999.2500   -999.2500   -999.2500   -999.2500   -999.2500   -999.2500   -999.2500   -999.2500   -999.2500
   8790.0000   -999.2500   -999.2500   -999.2500     56.6282   -999.2500   -999.2500   -999.2500   -999.2500   -999.2500   -999.2500   -999.2500   -999.2500   -999.2500   -999.2500
   8790.5000   -999.2500   -999.2500   -999.2500     58.4885   -999.2500   -999.2500   -999.2500   -999.2500   -999.2500   -999.2500   -999.2500   -999.2500   -999.2500   -999.2500
   8791.0000   -999.2500   -999.2500   -999.2500     66.8175   -999.2500   -999.2500   -999.2500   -999.2500   -999.2500   -999.2500   -999.2500   -999.2500   -999.2500   -999.2500
   8791.5000   -999.2500   -999.2500   -999.2500     60.0954   -999.2500   -999.2500   -999.2500   -999.2500   -999.2500   -999.2500   -999.2500   -999.2500   -999.2500   -999.2500
   8792.0000   -999.2500   -999.2500   -999.2500     56.6517   -999.2500   -999.2500   -999.2500   -999.2500   -999.2500   -999.2500   -999.2500   -999.2500   -999.2500   -999.2500
   8792.5000   -999.2500   -999.2500   -999.2500     57.3405   -999.2500   -999.2500   -999.2500   -999.2500   -999.2500   -999.2500   -999.2500   -999.2500   -999.2500   -999.2500
   8793.0000   -999.2500   -999.2500   -999.2500     63.1558   -999.2500   -999.2500   -999.2500   -999.2500   -999.2500   -999.2500   -999.2500   -999.2500   -999.2500   -999.2500
   8793.5000   -999.2500   -999.2500   -999.2500     61.1025   -999.2500   -999.2500   -999.2500   -999.2500   -999.2500   -999.2500   -999.2500   -999.2500   -999.2500   -999.2500
   8794.0000   -999.2500   -999.2500   -999.2500     58.1574   -999.2500   -999.2500   -999.2500   -999.2500   -999.2500   -999.2500   -999.2500   -999.2500   -999.2500   -999.2500
   8794.5000   -999.2500   -999.2500   -999.2500     50.8304   -999.2500   -999.2500   -999.2500   -999.2500   -999.2500   -999.2500   -999.2500   -999.2500   -999.2500   -999.2500
   8795.0000   -999.2500   -999.2500   -999.2500     54.4288   -999.2500   -999.2500   -999.2500   -999.2500   -999.2500   -999.2500   -999.2500   -999.2500   -999.2500   -999.2500
   8795.5000   -999.2500   -999.2500   -999.2500     57.6984   -999.2500   -999.2500   -999.2500   -999.2500   -999.2500   -999.2500   -999.2500   -999.2500   -999.2500   -999.2500
   8796.0000   -999.2500   -999.2500   -999.2500     66.2557   -999.2500   -999.2500   -999.2500   -999.2500   -999.2500   -999.2500   -999.2500   -999.2500   -999.2500   -999.2500
   8796.5000   -999.2500   -999.2500   -999.2500     72.1729   -999.2500   -999.2500   -999.2500   -999.2500   -999.2500   -999.2500   -999.2500   -999.2500   -999.2500   -999.2500
   8797.0000   -999.2500   -999.2500   -999.2500     77.3382   -999.2500   -999.2500   -999.2500   -999.2500   -999.2500   -999.2500   -999.2500   -999.2500   -999.2500   -999.2500
   8797.5000   -999.2500   -999.2500   -999.2500     80.2038   -999.2500   -999.2500   -999.2500   -999.2500   -999.2500   -999.2500   -999.2500   -999.2500   -999.2500   -999.2500
   8798.0000   -999.2500   -999.2500   -999.2500     84.8983   -999.2500   -999.2500   -999.2500   -999.2500   -999.2500   -999.2500   -999.2500   -999.2500   -999.2500   -999.2500
   8798.5000   -999.2500   -999.2500   -999.2500     83.7723   -999.2500   -999.2500   -999.2500   -999.2500   -999.2500   -999.2500   -999.2500   -999.2500   -999.2500   -999.2500
   8799.0000   -999.2500   -999.2500   -999.2500     70.7108   -999.2500   -999.2500   -999.2500   -999.2500   -999.2500   -999.2500   -999.2500   -999.2500   -999.2500   -999.2500
   8799.5000   -999.2500   -999.2500   -999.2500     66.5492   -999.2500   -999.2500   -999.2500   -999.2500   -999.2500   -999.2500   -999.2500   -999.2500   -999.2500   -999.2500
   8800.0000   -999.2500   -999.2500   -999.2500     64.1541   -999.2500   -999.2500   -999.2500   -999.2500   -999.2500   -999.2500   -999.2500   -999.2500   -999.2500   -999.2500
   8800.5000   -999.2500   -999.2500   -999.2500     62.4416   -999.2500   -999.2500   -999.2500   -999.2500   -999.2500   -999.2500   -999.2500   -999.2500   -999.2500   -999.2500
   8801.0000   -999.2500   -999.2500   -999.2500     57.1788   -999.2500   -999.2500   -999.2500   -999.2500   -999.2500   -999.2500   -999.2500   -999.2500   -999.2500   -999.2500
   8801.5000   -999.2500   -999.2500   -999.2500     58.2291   -999.2500   -999.2500   -999.2500   -999.2500   -999.2500   -999.2500   -999.2500   -999.2500   -999.2500   -999.2500
   8802.0000   -999.2500   -999.2500   -999.2500     63.8778   -999.2500   -999.2500   -999.2500   -999.2500   -999.2500   -999.2500   -999.2500   -999.2500   -999.2500   -999.2500
   8802.5000   -999.2500   -999.2500   -999.2500     61.4985   -999.2500   -999.2500   -999.2500   -999.2500   -999.2500   -999.2500   -999.2500   -999.2500   -999.2500   -999.2500
   8803.0000   -999.2500   -999.2500   -999.2500     57.3890   -999.2500   -999.2500   -999.2500   -999.2500   -999.2500   -999.2500   -999.2500   -999.2500   -999.2500   -999.2500
   8803.5000   -999.2500   -999.2500   -999.2500     60.0651   -999.2500   -999.2500   -999.2500   -999.2500   -999.2500   -999.2500   -999.2500   -999.2500   -999.2500   -999.2500
   8804.0000   -999.2500   -999.2500   -999.2500     60.9323   -999.2500   -999.2500   -999.2500   -999.2500   -999.2500   -999.2500   -999.2500   -999.2500   -999.2500   -999.2500
   8804.5000   -999.2500   -999.2500   -999.2500     61.4512   -999.2500   -999.2500   -999.2500   -999.2500   -999.2500   -999.2500   -999.2500   -999.2500   -999.2500   -999.2500
   8805.0000   -999.2500   -999.2500   -999.2500     55.2956   -999.2500   -999.2500   -999.2500   -999.2500   -999.2500   -999.2500   -999.2500   -999.2500   -999.2500   -999.2500
   8805.5000   -999.2500   -999.2500   -999.2500     57.8035   -999.2500   -999.2500   -999.2500   -999.2500   -999.2500   -999.2500   -999.2500   -999.2500   -999.2500   -999.2500
   8806.0000   -999.2500   -999.2500   -999.2500     57.6999   -999.2500   -999.2500   -999.2500   -999.2500   -999.2500   -999.2500   -999.2500   -999.2500   -999.2500   -999.2500
   8806.5000   -999.2500   -999.2500   -999.2500     56.2595   -999.2500   -999.2500   -999.2500   -999.2500   -999.2500   -999.2500   -999.2500   -999.2500   -999.2500   -999.2500
   8807.0000   -999.2500   -999.2500   -999.2500     53.5597   -999.2500   -999.2500   -999.2500   -999.2500   -999.2500   -999.2500   -999.2500   -999.2500   -999.2500   -999.2500
   8807.5000   -999.2500   -999.2500   -999.2500     48.6955   -999.2500   -999.2500   -999.2500   -999.2500   -999.2500   -999.2500   -999.2500   -999.2500   -999.2500   -999.2500
   8808.0000   -999.2500   -999.2500   -999.2500     53.6695   -999.2500   -999.2500   -999.2500   -999.2500   -999.2500   -999.2500   -999.2500   -999.2500   -999.2500   -999.2500
   8808.5000   -999.2500   -999.2500   -999.2500     60.1364   -999.2500   -999.2500   -999.2500   -999.2500   -999.2500   -999.2500   -999.2500   -999.2500   -999.2500   -999.2500
   8809.0000   -999.2500   -999.2500   -999.2500     57.7349   -999.2500   -999.2500   -999.2500   -999.2500   -999.2500   -999.2500   -999.2500   -999.2500   -999.2500   -999.2500
   8809.5000   -999.2500   -999.2500   -999.2500     59.6382   -999.2500   -999.2500   -999.2500   -999.2500   -999.2500   -999.2500   -999.2500   -999.2500   -999.2500   -999.2500
   8810.0000   -999.2500   -999.2500   -999.2500     63.3073   -999.2500   -999.2500   -999.2500   -999.2500   -999.2500   -999.2500   -999.2500   -999.2500   -999.2500   -999.2500
   8810.5000   -999.2500   -999.2500   -999.2500     62.4867   -999.2500   -999.2500   -999.2500   -999.2500   -999.2500   -999.2500   -999.2500   -999.2500   -999.2500   -999.2500
   8811.0000   -999.2500   -999.2500   -999.2500     58.6466   -999.2500   -999.2500   -999.2500   -999.2500   -999.2500   -999.2500   -999.2500   -999.2500   -999.2500   -999.2500
   8811.5000   -999.2500   -999.2500   -999.2500     62.3982   -999.2500   -999.2500   -999.2500   -999.2500   -999.2500   -999.2500   -999.2500   -999.2500   -999.2500   -999.2500
   8812.0000   -999.2500   -999.2500   -999.2500     64.2222   -999.2500   -999.2500   -999.2500   -999.2500   -999.2500   -999.2500   -999.2500   -999.2500   -999.2500   -999.2500
   8812.5000   -999.2500   -999.2500   -999.2500     61.1897   -999.2500   -999.2500   -999.2500   -999.2500   -999.2500   -999.2500   -999.2500   -999.2500   -999.2500   -999.2500
   8813.0000   -999.2500   -999.2500   -999.2500     61.2389   -999.2500   -999.2500   -999.2500   -999.2500   -999.2500   -999.2500   -999.2500   -999.2500   -999.2500   -999.2500
   8813.5000   -999.2500   -999.2500   -999.2500     55.2870   -999.2500   -999.2500   -999.2500   -999.2500   -999.2500   -999.2500   -999.2500   -999.2500   -999.2500   -999.2500
   8814.0000   -999.2500   -999.2500   -999.2500     51.4114   -999.2500   -999.2500   -999.2500   -999.2500   -999.2500   -999.2500   -999.2500   -999.2500   -999.2500   -999.2500
   8814.5000   -999.2500   -999.2500   -999.2500     53.8627   -999.2500   -999.2500   -999.2500   -999.2500   -999.2500   -999.2500   -999.2500   -999.2500   -999.2500   -999.2500
   8815.0000   -999.2500   -999.2500   -999.2500     51.2012   -999.2500   -999.2500   -999.2500   -999.2500   -999.2500   -999.2500   -999.2500   -999.2500   -999.2500   -999.2500
   8815.5000   -999.2500   -999.2500   -999.2500     50.1234   -999.2500   -999.2500   -999.2500   -999.2500   -999.2500   -999.2500   -999.2500   -999.2500   -999.2500   -999.2500
   8816.0000   -999.2500   -999.2500   -999.2500     51.3674   -999.2500   -999.2500   -999.2500   -999.2500   -999.2500   -999.2500   -999.2500   -999.2500   -999.2500   -999.2500
   8816.5000   -999.2500   -999.2500   -999.2500     54.8507   -999.2500   -999.2500   -999.2500   -999.2500   -999.2500   -999.2500   -999.2500   -999.2500   -999.2500   -999.2500
   8817.0000   -999.2500   -999.2500   -999.2500     53.5894   -999.2500   -999.2500   -999.2500   -999.2500   -999.2500   -999.2500   -999.2500   -999.2500   -999.2500   -999.2500
   8817.5000   -999.2500   -999.2500   -999.2500     55.3419   -999.2500   -999.2500   -999.2500   -999.2500   -999.2500   -999.2500   -999.2500   -999.2500   -999.2500   -999.2500
   8818.0000   -999.2500   -999.2500   -999.2500     54.2110   -999.2500   -999.2500   -999.2500   -999.2500   -999.2500   -999.2500   -999.2500   -999.2500   -999.2500   -999.2500
   8818.5000   -999.2500   -999.2500   -999.2500     55.8569   -999.2500   -999.2500   -999.2500   -999.2500   -999.2500   -999.2500   -999.2500   -999.2500   -999.2500   -999.2500
   8819.0000   -999.2500   -999.2500   -999.2500     49.9268   -999.2500   -999.2500   -999.2500   -999.2500   -999.2500   -999.2500   -999.2500   -999.2500   -999.2500   -999.2500
   8819.5000   -999.2500   -999.2500   -999.2500     49.0914   -999.2500   -999.2500   -999.2500   -999.2500   -999.2500   -999.2500   -999.2500   -999.2500   -999.2500   -999.2500
   8820.0000   -999.2500   -999.2500   -999.2500     48.2039   -999.2500   -999.2500   -999.2500   -999.2500   -999.2500   -999.2500   -999.2500   -999.2500   -999.2500   -999.2500
   8820.5000   -999.2500   -999.2500   -999.2500     38.9476   -999.2500   -999.2500   -999.2500   -999.2500   -999.2500   -999.2500   -999.2500   -999.2500   -999.2500   -999.2500
   8821.0000   -999.2500   -999.2500   -999.2500     32.2329   -999.2500   -999.2500   -999.2500   -999.2500   -999.2500   -999.2500   -999.2500   -999.2500   -999.2500   -999.2500
   8821.5000   -999.2500   -999.2500   -999.2500     35.3270   -999.2500   -999.2500   -999.2500   -999.2500   -999.2500   -999.2500   -999.2500   -999.2500   -999.2500   -999.2500
   8822.0000   -999.2500   -999.2500   -999.2500     43.4375   -999.2500   -999.2500   -999.2500   -999.2500   -999.2500   -999.2500   -999.2500   -999.2500   -999.2500   -999.2500
   8822.5000   -999.2500   -999.2500   -999.2500     51.0523   -999.2500   -999.2500   -999.2500   -999.2500   -999.2500   -999.2500   -999.2500   -999.2500   -999.2500   -999.2500
   8823.0000   -999.2500   -999.2500   -999.2500     52.7684   -999.2500   -999.2500   -999.2500   -999.2500   -999.2500   -999.2500   -999.2500   -999.2500   -999.2500   -999.2500
   8823.5000   -999.2500   -999.2500   -999.2500     56.5961   -999.2500   -999.2500   -999.2500   -999.2500   -999.2500   -999.2500   -999.2500   -999.2500   -999.2500   -999.2500
   8824.0000   -999.2500   -999.2500   -999.2500     58.7652   -999.2500   -999.2500   -999.2500   -999.2500   -999.2500   -999.2500   -999.2500   -999.2500   -999.2500   -999.2500
   8824.5000   -999.2500   -999.2500   -999.2500     72.9219   -999.2500   -999.2500   -999.2500   -999.2500   -999.2500   -999.2500   -999.2500   -999.2500   -999.2500   -999.2500
   8825.0000   -999.2500   -999.2500   -999.2500     86.0124   -999.2500   -999.2500   -999.2500   -999.2500   -999.2500   -999.2500   -999.2500   -999.2500   -999.2500   -999.2500
   8825.5000   -999.2500   -999.2500   -999.2500     80.4450   -999.2500   -999.2500   -999.2500   -999.2500   -999.2500   -999.2500   -999.2500   -999.2500   -999.2500   -999.2500
   8826.0000   -999.2500   -999.2500   -999.2500     68.5045   -999.2500   -999.2500   -999.2500   -999.2500   -999.2500   -999.2500   -999.2500   -999.2500   -999.2500   -999.2500
   8826.5000   -999.2500   -999.2500   -999.2500     61.5365   -999.2500   -999.2500   -999.2500   -999.2500   -999.2500   -999.2500   -999.2500   -999.2500   -999.2500   -999.2500
   8827.0000   -999.2500   -999.2500   -999.2500     58.7445   -999.2500   -999.2500   -999.2500   -999.2500   -999.2500   -999.2500   -999.2500   -999.2500   -999.2500   -999.2500
   8827.5000   -999.2500   -999.2500   -999.2500     53.3395   -999.2500   -999.2500   -999.2500   -999.2500   -999.2500   -999.2500   -999.2500   -999.2500   -999.2500   -999.2500
   8828.0000   -999.2500   -999.2500   -999.2500     50.3769   -999.2500   -999.2500   -999.2500   -999.2500   -999.2500   -999.2500   -999.2500   -999.2500   -999.2500   -999.2500
   8828.5000   -999.2500   -999.2500   -999.2500     58.6782   -999.2500   -999.2500   -999.2500   -999.2500   -999.2500   -999.2500   -999.2500   -999.2500   -999.2500   -999.2500
   8829.0000   -999.2500   -999.2500   -999.2500     62.8372   -999.2500   -999.2500   -999.2500   -999.2500   -999.2500   -999.2500   -999.2500   -999.2500   -999.2500   -999.2500
   8829.5000   -999.2500   -999.2500   -999.2500     68.6637   -999.2500   -999.2500   -999.2500   -999.2500   -999.2500   -999.2500   -999.2500   -999.2500   -999.2500   -999.2500
   8830.0000   -999.2500   -999.2500   -999.2500     71.1636   -999.2500   -999.2500   -999.2500   -999.2500   -999.2500   -999.2500   -999.2500   -999.2500   -999.2500   -999.2500
   8830.5000   -999.2500   -999.2500   -999.2500     67.0268   -999.2500   -999.2500   -999.2500   -999.2500   -999.2500   -999.2500   -999.2500   -999.2500   -999.2500   -999.2500
   8831.0000   -999.2500   -999.2500   -999.2500     61.9785   -999.2500   -999.2500   -999.2500   -999.2500   -999.2500   -999.2500   -999.2500   -999.2500   -999.2500   -999.2500
   8831.5000   -999.2500   -999.2500   -999.2500     67.1027   -999.2500   -999.2500   -999.2500   -999.2500   -999.2500   -999.2500   -999.2500   -999.2500   -999.2500   -999.2500
   8832.0000   -999.2500   -999.2500   -999.2500     64.2578   -999.2500   -999.2500   -999.2500   -999.2500   -999.2500   -999.2500   -999.2500   -999.2500   -999.2500   -999.2500
   8832.5000   -999.2500   -999.2500   -999.2500     67.9008   -999.2500   -999.2500   -999.2500   -999.2500   -999.2500   -999.2500   -999.2500   -999.2500   -999.2500   -999.2500
   8833.0000   -999.2500   -999.2500   -999.2500     73.3128   -999.2500   -999.2500   -999.2500   -999.2500   -999.2500   -999.2500   -999.2500   -999.2500   -999.2500   -999.2500
   8833.5000   -999.2500   -999.2500   -999.2500     72.8530   -999.2500   -999.2500   -999.2500   -999.2500   -999.2500   -999.2500   -999.2500   -999.2500   -999.2500   -999.2500
   8834.0000   -999.2500   -999.2500   -999.2500     72.7134   -999.2500   -999.2500   -999.2500   -999.2500   -999.2500   -999.2500   -999.2500   -999.2500   -999.2500   -999.2500
   8834.5000   -999.2500   -999.2500   -999.2500     71.6768   -999.2500   -999.2500   -999.2500   -999.2500   -999.2500   -999.2500   -999.2500   -999.2500   -999.2500   -999.2500
   8835.0000   -999.2500   -999.2500   -999.2500     73.5837   -999.2500   -999.2500   -999.2500   -999.2500   -999.2500   -999.2500   -999.2500   -999.2500   -999.2500   -999.2500
   8835.5000   -999.2500   -999.2500   -999.2500     74.6047   -999.2500   -999.2500   -999.2500   -999.2500   -999.2500   -999.2500   -999.2500   -999.2500   -999.2500   -999.2500
   8836.0000   -999.2500   -999.2500   -999.2500     73.3349   -999.2500   -999.2500   -999.2500   -999.2500   -999.2500   -999.2500   -999.2500   -999.2500   -999.2500   -999.2500
   8836.5000   -999.2500   -999.2500   -999.2500     68.2604   -999.2500   -999.2500   -999.2500   -999.2500   -999.2500   -999.2500   -999.2500   -999.2500   -999.2500   -999.2500
   8837.0000   -999.2500   -999.2500   -999.2500     67.6110   -999.2500   -999.2500   -999.2500   -999.2500   -999.2500   -999.2500   -999.2500   -999.2500   -999.2500   -999.2500
   8837.5000   -999.2500   -999.2500   -999.2500     67.2057   -999.2500   -999.2500   -999.2500   -999.2500   -999.2500   -999.2500   -999.2500   -999.2500   -999.2500   -999.2500
   8838.0000   -999.2500   -999.2500   -999.2500     64.0980   -999.2500   -999.2500   -999.2500   -999.2500   -999.2500   -999.2500   -999.2500   -999.2500   -999.2500   -999.2500
   8838.5000   -999.2500   -999.2500   -999.2500     66.4090   -999.2500   -999.2500   -999.2500   -999.2500   -999.2500   -999.2500   -999.2500   -999.2500   -999.2500   -999.2500
   8839.0000   -999.2500   -999.2500   -999.2500     73.5479   -999.2500   -999.2500   -999.2500   -999.2500   -999.2500   -999.2500   -999.2500   -999.2500   -999.2500   -999.2500
   8839.5000   -999.2500   -999.2500   -999.2500     76.9617   -999.2500   -999.2500   -999.2500   -999.2500   -999.2500   -999.2500   -999.2500   -999.2500   -999.2500   -999.2500
   8840.0000   -999.2500   -999.2500   -999.2500     73.0005   -999.2500   -999.2500   -999.2500   -999.2500   -999.2500   -999.2500   -999.2500   -999.2500   -999.2500   -999.2500
   8840.5000   -999.2500   -999.2500   -999.2500     69.4232   -999.2500   -999.2500   -999.2500   -999.2500   -999.2500   -999.2500   -999.2500   -999.2500   -999.2500   -999.2500
   8841.0000   -999.2500   -999.2500   -999.2500     68.6920   -999.2500   -999.2500   -999.2500   -999.2500   -999.2500   -999.2500   -999.2500   -999.2500   -999.2500   -999.2500
   8841.5000   -999.2500   -999.2500   -999.2500     71.6560   -999.2500   -999.2500   -999.2500   -999.2500   -999.2500   -999.2500   -999.2500   -999.2500   -999.2500   -999.2500
   8842.0000   -999.2500   -999.2500   -999.2500     74.0026   -999.2500   -999.2500   -999.2500   -999.2500   -999.2500   -999.2500   -999.2500   -999.2500   -999.2500   -999.2500
   8842.5000   -999.2500   -999.2500   -999.2500     72.8133   -999.2500   -999.2500   -999.2500   -999.2500   -999.2500   -999.2500   -999.2500   -999.2500   -999.2500   -999.2500
   8843.0000   -999.2500   -999.2500   -999.2500     65.4670   -999.2500   -999.2500   -999.2500   -999.2500   -999.2500   -999.2500   -999.2500   -999.2500   -999.2500   -999.2500
   8843.5000   -999.2500   -999.2500   -999.2500     66.8748   -999.2500   -999.2500   -999.2500   -999.2500   -999.2500   -999.2500   -999.2500   -999.2500   -999.2500   -999.2500
   8844.0000   -999.2500   -999.2500   -999.2500     69.6881   -999.2500   -999.2500   -999.2500   -999.2500   -999.2500   -999.2500   -999.2500   -999.2500   -999.2500   -999.2500
   8844.5000   -999.2500   -999.2500   -999.2500     63.9416   -999.2500   -999.2500   -999.2500   -999.2500   -999.2500   -999.2500   -999.2500   -999.2500   -999.2500   -999.2500
   8845.0000   -999.2500   -999.2500   -999.2500     58.5775   -999.2500   -999.2500   -999.2500   -999.2500   -999.2500   -999.2500   -999.2500   -999.2500   -999.2500   -999.2500
   8845.5000   -999.2500   -999.2500   -999.2500     69.2454   -999.2500   -999.2500   -999.2500   -999.2500   -999.2500   -999.2500   -999.2500   -999.2500   -999.2500   -999.2500
   8846.0000   -999.2500   -999.2500   -999.2500     75.2789   -999.2500   -999.2500   -999.2500   -999.2500   -999.2500   -999.2500   -999.2500   -999.2500   -999.2500   -999.2500
   8846.5000   -999.2500   -999.2500   -999.2500     68.7331   -999.2500   -999.2500   -999.2500   -999.2500   -999.2500   -999.2500   -999.2500   -999.2500   -999.2500   -999.2500
   8847.0000   -999.2500   -999.2500   -999.2500     62.3634   -999.2500   -999.2500   -999.2500   -999.2500   -999.2500   -999.2500   -999.2500   -999.2500   -999.2500   -999.2500
   8847.5000   -999.2500   -999.2500   -999.2500     64.6072   -999.2500   -999.2500   -999.2500   -999.2500   -999.2500   -999.2500   -999.2500   -999.2500   -999.2500   -999.2500
   8848.0000   -999.2500   -999.2500   -999.2500     68.4267   -999.2500   -999.2500   -999.2500   -999.2500   -999.2500   -999.2500   -999.2500   -999.2500   -999.2500   -999.2500
   8848.5000   -999.2500   -999.2500   -999.2500     60.7974   -999.2500   -999.2500   -999.2500   -999.2500   -999.2500   -999.2500   -999.2500   -999.2500   -999.2500   -999.2500
   8849.0000   -999.2500   -999.2500   -999.2500     58.5966   -999.2500   -999.2500   -999.2500   -999.2500   -999.2500   -999.2500   -999.2500   -999.2500   -999.2500   -999.2500
   8849.5000   -999.2500   -999.2500   -999.2500     62.2109   -999.2500   -999.2500   -999.2500   -999.2500   -999.2500   -999.2500   -999.2500   -999.2500   -999.2500   -999.2500
   8850.0000   -999.2500   -999.2500   -999.2500     66.4990   -999.2500   -999.2500   -999.2500   -999.2500   -999.2500   -999.2500   -999.2500   -999.2500   -999.2500   -999.2500
   8850.5000   -999.2500   -999.2500   -999.2500     62.2037   -999.2500   -999.2500   -999.2500   -999.2500   -999.2500   -999.2500   -999.2500   -999.2500   -999.2500   -999.2500
   8851.0000   -999.2500   -999.2500   -999.2500     60.3364   -999.2500   -999.2500   -999.2500   -999.2500   -999.2500   -999.2500   -999.2500   -999.2500   -999.2500   -999.2500
   8851.5000   -999.2500   -999.2500   -999.2500     60.5899   -999.2500   -999.2500   -999.2500   -999.2500   -999.2500   -999.2500   -999.2500   -999.2500   -999.2500   -999.2500
   8852.0000   -999.2500   -999.2500   -999.2500     62.4943   -999.2500   -999.2500   -999.2500   -999.2500   -999.2500   -999.2500   -999.2500   -999.2500   -999.2500   -999.2500
   8852.5000   -999.2500   -999.2500   -999.2500     73.3254   -999.2500   -999.2500   -999.2500   -999.2500   -999.2500   -999.2500   -999.2500   -999.2500   -999.2500   -999.2500
   8853.0000   -999.2500   -999.2500   -999.2500     77.5161   -999.2500   -999.2500   -999.2500   -999.2500   -999.2500   -999.2500   -999.2500   -999.2500   -999.2500   -999.2500
   8853.5000   -999.2500   -999.2500   -999.2500     76.7462   -999.2500   -999.2500   -999.2500   -999.2500   -999.2500   -999.2500   -999.2500   -999.2500   -999.2500   -999.2500
   8854.0000   -999.2500   -999.2500   -999.2500     75.2571   -999.2500   -999.2500   -999.2500   -999.2500   -999.2500   -999.2500   -999.2500   -999.2500   -999.2500   -999.2500
   8854.5000   -999.2500   -999.2500   -999.2500     71.5947   -999.2500   -999.2500   -999.2500   -999.2500   -999.2500   -999.2500   -999.2500   -999.2500   -999.2500   -999.2500
   8855.0000   -999.2500   -999.2500   -999.2500     75.0621   -999.2500   -999.2500   -999.2500   -999.2500   -999.2500   -999.2500   -999.2500   -999.2500   -999.2500   -999.2500
   8855.5000   -999.2500   -999.2500   -999.2500     77.4304   -999.2500   -999.2500   -999.2500   -999.2500   -999.2500   -999.2500   -999.2500   -999.2500   -999.2500   -999.2500
   8856.0000   -999.2500   -999.2500   -999.2500     74.4068   -999.2500   -999.2500   -999.2500   -999.2500   -999.2500   -999.2500   -999.2500   -999.2500   -999.2500   -999.2500
   8856.5000   -999.2500   -999.2500   -999.2500     76.0998   -999.2500   -999.2500   -999.2500   -999.2500   -999.2500   -999.2500   -999.2500   -999.2500   -999.2500   -999.2500
   8857.0000   -999.2500   -999.2500   -999.2500     78.3441   -999.2500   -999.2500   -999.2500   -999.2500   -999.2500   -999.2500   -999.2500   -999.2500   -999.2500   -999.2500
   8857.5000   -999.2500   -999.2500   -999.2500     74.2403   -999.2500   -999.2500   -999.2500   -999.2500   -999.2500   -999.2500   -999.2500   -999.2500   -999.2500   -999.2500
   8858.0000   -999.2500   -999.2500   -999.2500     74.0722   -999.2500   -999.2500   -999.2500   -999.2500   -999.2500   -999.2500   -999.2500   -999.2500   -999.2500   -999.2500
   8858.5000   -999.2500   -999.2500   -999.2500     77.2524   -999.2500   -999.2500   -999.2500   -999.2500   -999.2500   -999.2500   -999.2500   -999.2500   -999.2500   -999.2500
   8859.0000   -999.2500   -999.2500   -999.2500     81.7290   -999.2500   -999.2500   -999.2500   -999.2500   -999.2500   -999.2500   -999.2500   -999.2500   -999.2500   -999.2500
   8859.5000   -999.2500   -999.2500   -999.2500     86.3172   -999.2500   -999.2500   -999.2500   -999.2500   -999.2500   -999.2500   -999.2500   -999.2500   -999.2500   -999.2500
   8860.0000   -999.2500   -999.2500   -999.2500     87.6064   -999.2500   -999.2500   -999.2500   -999.2500   -999.2500   -999.2500   -999.2500   -999.2500   -999.2500   -999.2500
   8860.5000   -999.2500   -999.2500   -999.2500     90.1938   -999.2500   -999.2500   -999.2500   -999.2500   -999.2500   -999.2500   -999.2500   -999.2500   -999.2500   -999.2500
   8861.0000   -999.2500   -999.2500   -999.2500     90.8293   -999.2500   -999.2500   -999.2500   -999.2500   -999.2500   -999.2500   -999.2500   -999.2500   -999.2500   -999.2500
   8861.5000   -999.2500   -999.2500   -999.2500     95.3111   -999.2500   -999.2500   -999.2500   -999.2500   -999.2500   -999.2500   -999.2500   -999.2500   -999.2500   -999.2500
   8862.0000   -999.2500   -999.2500   -999.2500     93.1125   -999.2500   -999.2500   -999.2500   -999.2500   -999.2500   -999.2500   -999.2500   -999.2500   -999.2500   -999.2500
   8862.5000   -999.2500   -999.2500   -999.2500     86.1805   -999.2500   -999.2500   -999.2500   -999.2500   -999.2500   -999.2500   -999.2500   -999.2500   -999.2500   -999.2500
   8863.0000   -999.2500   -999.2500   -999.2500     80.6586   -999.2500   -999.2500   -999.2500   -999.2500   -999.2500   -999.2500   -999.2500   -999.2500   -999.2500   -999.2500
   8863.5000   -999.2500   -999.2500   -999.2500     80.8248   -999.2500   -999.2500   -999.2500   -999.2500   -999.2500   -999.2500   -999.2500   -999.2500   -999.2500   -999.2500
   8864.0000   -999.2500   -999.2500   -999.2500     80.7250   -999.2500   -999.2500   -999.2500   -999.2500   -999.2500   -999.2500   -999.2500   -999.2500   -999.2500   -999.2500
   8864.5000   -999.2500   -999.2500   -999.2500     79.7155   -999.2500   -999.2500   -999.2500   -999.2500   -999.2500   -999.2500   -999.2500   -999.2500   -999.2500   -999.2500
   8865.0000   -999.2500   -999.2500   -999.2500     79.1950   -999.2500   -999.2500   -999.2500   -999.2500   -999.2500   -999.2500   -999.2500   -999.2500   -999.2500   -999.2500
   8865.5000   -999.2500   -999.2500   -999.2500     77.0751   -999.2500   -999.2500   -999.2500   -999.2500   -999.2500   -999.2500   -999.2500   -999.2500   -999.2500   -999.2500
   8866.0000   -999.2500   -999.2500   -999.2500     71.9858   -999.2500   -999.2500   -999.2500   -999.2500   -999.2500   -999.2500   -999.2500   -999.2500   -999.2500   -999.2500
   8866.5000   -999.2500   -999.2500   -999.2500     67.5194   -999.2500   -999.2500   -999.2500   -999.2500   -999.2500   -999.2500   -999.2500   -999.2500   -999.2500   -999.2500
   8867.0000   -999.2500   -999.2500   -999.2500     73.9437   -999.2500   -999.2500   -999.2500   -999.2500   -999.2500   -999.2500   -999.2500   -999.2500   -999.2500   -999.2500
   8867.5000   -999.2500   -999.2500   -999.2500     86.2027   -999.2500   -999.2500   -999.2500   -999.2500   -999.2500   -999.2500   -999.2500   -999.2500   -999.2500   -999.2500
   8868.0000   -999.2500   -999.2500   -999.2500     87.1877   -999.2500   -999.2500   -999.2500   -999.2500   -999.2500   -999.2500   -999.2500   -999.2500   -999.2500   -999.2500
   8868.5000   -999.2500   -999.2500   -999.2500     87.5748   -999.2500   -999.2500   -999.2500   -999.2500   -999.2500   -999.2500   -999.2500   -999.2500   -999.2500   -999.2500
   8869.0000   -999.2500   -999.2500   -999.2500     99.0163   -999.2500   -999.2500   -999.2500   -999.2500   -999.2500   -999.2500   -999.2500   -999.2500   -999.2500   -999.2500
   8869.5000   -999.2500   -999.2500   -999.2500    115.0039   -999.2500   -999.2500   -999.2500   -999.2500   -999.2500   -999.2500   -999.2500   -999.2500   -999.2500   -999.2500
   8870.0000   -999.2500   -999.2500   -999.2500    166.3020   -999.2500   -999.2500   -999.2500   -999.2500   -999.2500   -999.2500   -999.2500   -999.2500   -999.2500   -999.2500
   8870.5000   -999.2500   -999.2500   -999.2500    221.6404   -999.2500   -999.2500   -999.2500   -999.2500   -999.2500   -999.2500   -999.2500   -999.2500   -999.2500   -999.2500
   8871.0000   -999.2500   -999.2500   -999.2500    172.7666   -999.2500   -999.2500   -999.2500   -999.2500   -999.2500   -999.2500   -999.2500   -999.2500   -999.2500   -999.2500
   8871.5000   -999.2500   -999.2500   -999.2500    100.0881   -999.2500   -999.2500   -999.2500   -999.2500   -999.2500   -999.2500   -999.2500   -999.2500   -999.2500   -999.2500
   8872.0000   -999.2500   -999.2500   -999.2500     86.4721   -999.2500   -999.2500   -999.2500   -999.2500   -999.2500   -999.2500   -999.2500   -999.2500   -999.2500   -999.2500
   8872.5000   -999.2500   -999.2500   -999.2500     75.8482   -999.2500   -999.2500   -999.2500   -999.2500   -999.2500   -999.2500   -999.2500   -999.2500   -999.2500   -999.2500
   8873.0000   -999.2500   -999.2500   -999.2500     66.9489   -999.2500   -999.2500   -999.2500   -999.2500   -999.2500   -999.2500   -999.2500   -999.2500   -999.2500   -999.2500
   8873.5000   -999.2500   -999.2500   -999.2500     62.1683   -999.2500   -999.2500   -999.2500   -999.2500   -999.2500   -999.2500   -999.2500   -999.2500   -999.2500   -999.2500
   8874.0000   -999.2500   -999.2500   -999.2500     61.8517   -999.2500   -999.2500   -999.2500   -999.2500   -999.2500   -999.2500   -999.2500   -999.2500   -999.2500   -999.2500
   8874.5000   -999.2500   -999.2500   -999.2500     55.5620   -999.2500   -999.2500   -999.2500   -999.2500   -999.2500   -999.2500   -999.2500   -999.2500   -999.2500   -999.2500
   8875.0000   -999.2500   -999.2500   -999.2500     48.5332   -999.2500   -999.2500   -999.2500   -999.2500   -999.2500   -999.2500   -999.2500   -999.2500   -999.2500   -999.2500
   8875.5000   -999.2500   -999.2500   -999.2500     55.5943   -999.2500   -999.2500   -999.2500   -999.2500   -999.2500   -999.2500   -999.2500   -999.2500   -999.2500   -999.2500
   8876.0000   -999.2500   -999.2500   -999.2500     65.2734   -999.2500   -999.2500   -999.2500   -999.2500   -999.2500   -999.2500   -999.2500   -999.2500   -999.2500   -999.2500
   8876.5000   -999.2500   -999.2500   -999.2500     76.4245   -999.2500   -999.2500   -999.2500   -999.2500   -999.2500   -999.2500   -999.2500   -999.2500   -999.2500   -999.2500
   8877.0000   -999.2500   -999.2500   -999.2500     93.1485   -999.2500   -999.2500   -999.2500   -999.2500   -999.2500   -999.2500   -999.2500   -999.2500   -999.2500   -999.2500
   8877.5000   -999.2500   -999.2500   -999.2500     98.5581   -999.2500   -999.2500   -999.2500   -999.2500   -999.2500   -999.2500   -999.2500   -999.2500   -999.2500   -999.2500
   8878.0000   -999.2500   -999.2500   -999.2500    105.8304   -999.2500   -999.2500   -999.2500   -999.2500   -999.2500   -999.2500   -999.2500   -999.2500   -999.2500   -999.2500
   8878.5000   -999.2500   -999.2500   -999.2500    104.7340   -999.2500   -999.2500   -999.2500   -999.2500   -999.2500   -999.2500   -999.2500   -999.2500   -999.2500   -999.2500
   8879.0000   -999.2500   -999.2500   -999.2500     96.5043   -999.2500   -999.2500   -999.2500   -999.2500   -999.2500   -999.2500   -999.2500   -999.2500   -999.2500   -999.2500
   8879.5000   -999.2500   -999.2500   -999.2500     87.8235   -999.2500   -999.2500   -999.2500   -999.2500   -999.2500   -999.2500   -999.2500   -999.2500   -999.2500   -999.2500
   8880.0000   -999.2500   -999.2500   -999.2500     78.7122   -999.2500   -999.2500   -999.2500   -999.2500   -999.2500   -999.2500   -999.2500   -999.2500   -999.2500   -999.2500
   8880.5000   -999.2500   -999.2500   -999.2500     70.9866   -999.2500   -999.2500   -999.2500   -999.2500   -999.2500   -999.2500   -999.2500   -999.2500   -999.2500   -999.2500
   8881.0000   -999.2500   -999.2500   -999.2500     71.6515   -999.2500   -999.2500   -999.2500   -999.2500   -999.2500   -999.2500   -999.2500   -999.2500   -999.2500   -999.2500
   8881.5000   -999.2500   -999.2500   -999.2500     75.4365   -999.2500   -999.2500   -999.2500   -999.2500   -999.2500   -999.2500   -999.2500   -999.2500   -999.2500   -999.2500
   8882.0000   -999.2500   -999.2500   -999.2500     69.1987   -999.2500   -999.2500   -999.2500   -999.2500   -999.2500   -999.2500   -999.2500   -999.2500   -999.2500   -999.2500
   8882.5000   -999.2500   -999.2500   -999.2500     68.5244   -999.2500   -999.2500   -999.2500   -999.2500   -999.2500   -999.2500   -999.2500   -999.2500   -999.2500   -999.2500
   8883.0000   -999.2500   -999.2500   -999.2500     68.2596   -999.2500   -999.2500   -999.2500   -999.2500   -999.2500   -999.2500   -999.2500   -999.2500   -999.2500   -999.2500
   8883.5000   -999.2500   -999.2500   -999.2500     69.0186   -999.2500   -999.2500   -999.2500   -999.2500   -999.2500   -999.2500   -999.2500   -999.2500   -999.2500   -999.2500
   8884.0000   -999.2500   -999.2500   -999.2500     68.6880   -999.2500   -999.2500   -999.2500   -999.2500   -999.2500   -999.2500   -999.2500   -999.2500   -999.2500   -999.2500
   8884.5000   -999.2500   -999.2500   -999.2500     67.9065   -999.2500   -999.2500   -999.2500   -999.2500   -999.2500   -999.2500   -999.2500   -999.2500   -999.2500   -999.2500
   8885.0000   -999.2500   -999.2500   -999.2500     68.8204   -999.2500   -999.2500   -999.2500   -999.2500   -999.2500   -999.2500   -999.2500   -999.2500   -999.2500   -999.2500
   8885.5000   -999.2500   -999.2500   -999.2500     68.7416   -999.2500   -999.2500   -999.2500   -999.2500   -999.2500   -999.2500   -999.2500   -999.2500   -999.2500   -999.2500
   8886.0000   -999.2500   -999.2500   -999.2500     74.4462   -999.2500   -999.2500   -999.2500   -999.2500   -999.2500   -999.2500   -999.2500   -999.2500   -999.2500   -999.2500
   8886.5000   -999.2500   -999.2500   -999.2500     77.9169   -999.2500   -999.2500   -999.2500   -999.2500   -999.2500   -999.2500   -999.2500   -999.2500   -999.2500   -999.2500
   8887.0000   -999.2500   -999.2500   -999.2500     79.2159   -999.2500   -999.2500   -999.2500   -999.2500   -999.2500   -999.2500   -999.2500   -999.2500   -999.2500   -999.2500
   8887.5000   -999.2500   -999.2500   -999.2500     81.8387   -999.2500   -999.2500   -999.2500   -999.2500   -999.2500   -999.2500   -999.2500   -999.2500   -999.2500   -999.2500
   8888.0000   -999.2500   -999.2500   -999.2500     83.4305   -999.2500   -999.2500   -999.2500   -999.2500   -999.2500   -999.2500   -999.2500   -999.2500   -999.2500   -999.2500
   8888.5000   -999.2500   -999.2500   -999.2500     82.0975   -999.2500   -999.2500   -999.2500   -999.2500   -999.2500   -999.2500   -999.2500   -999.2500   -999.2500   -999.2500
   8889.0000   -999.2500   -999.2500   -999.2500     75.7080   -999.2500   -999.2500   -999.2500   -999.2500   -999.2500   -999.2500   -999.2500   -999.2500   -999.2500   -999.2500
   8889.5000   -999.2500   -999.2500   -999.2500     74.0492   -999.2500   -999.2500   -999.2500   -999.2500   -999.2500   -999.2500   -999.2500   -999.2500   -999.2500   -999.2500
   8890.0000   -999.2500   -999.2500   -999.2500     67.3142   -999.2500   -999.2500   -999.2500   -999.2500   -999.2500   -999.2500   -999.2500   -999.2500   -999.2500   -999.2500
   8890.5000   -999.2500   -999.2500   -999.2500     60.9895   -999.2500   -999.2500   -999.2500   -999.2500   -999.2500   -999.2500   -999.2500   -999.2500   -999.2500   -999.2500
   8891.0000   -999.2500   -999.2500   -999.2500     59.4750   -999.2500   -999.2500   -999.2500   -999.2500   -999.2500   -999.2500   -999.2500   -999.2500   -999.2500   -999.2500
   8891.5000   -999.2500   -999.2500   -999.2500     57.5014   -999.2500   -999.2500   -999.2500   -999.2500   -999.2500   -999.2500   -999.2500   -999.2500   -999.2500   -999.2500
   8892.0000   -999.2500   -999.2500   -999.2500     56.6707   -999.2500   -999.2500   -999.2500   -999.2500   -999.2500   -999.2500   -999.2500   -999.2500   -999.2500   -999.2500
   8892.5000   -999.2500   -999.2500   -999.2500     56.9871   -999.2500   -999.2500   -999.2500   -999.2500   -999.2500   -999.2500   -999.2500   -999.2500   -999.2500   -999.2500
   8893.0000   -999.2500   -999.2500   -999.2500     60.1830   -999.2500   -999.2500   -999.2500   -999.2500   -999.2500   -999.2500   -999.2500   -999.2500   -999.2500   -999.2500
   8893.5000   -999.2500   -999.2500   -999.2500     62.3263   -999.2500   -999.2500   -999.2500   -999.2500   -999.2500   -999.2500   -999.2500   -999.2500   -999.2500   -999.2500
   8894.0000   -999.2500   -999.2500   -999.2500     61.1543   -999.2500   -999.2500   -999.2500   -999.2500   -999.2500   -999.2500   -999.2500   -999.2500   -999.2500   -999.2500
   8894.5000   -999.2500   -999.2500   -999.2500     61.1072   -999.2500   -999.2500   -999.2500   -999.2500   -999.2500   -999.2500   -999.2500   -999.2500   -999.2500   -999.2500
   8895.0000   -999.2500   -999.2500   -999.2500     59.3717   -999.2500   -999.2500   -999.2500   -999.2500   -999.2500   -999.2500   -999.2500   -999.2500   -999.2500   -999.2500
   8895.5000   -999.2500   -999.2500   -999.2500     56.0048   -999.2500   -999.2500   -999.2500   -999.2500   -999.2500   -999.2500   -999.2500   -999.2500   -999.2500   -999.2500
   8896.0000   -999.2500   -999.2500   -999.2500     52.3375   -999.2500   -999.2500   -999.2500   -999.2500   -999.2500   -999.2500   -999.2500   -999.2500   -999.2500   -999.2500
   8896.5000   -999.2500   -999.2500   -999.2500     53.4137   -999.2500   -999.2500   -999.2500   -999.2500   -999.2500   -999.2500   -999.2500   -999.2500   -999.2500   -999.2500
   8897.0000   -999.2500   -999.2500   -999.2500     55.3094   -999.2500   -999.2500   -999.2500   -999.2500   -999.2500   -999.2500   -999.2500   -999.2500   -999.2500   -999.2500
   8897.5000   -999.2500   -999.2500   -999.2500     55.2498   -999.2500   -999.2500   -999.2500   -999.2500   -999.2500   -999.2500   -999.2500   -999.2500   -999.2500   -999.2500
   8898.0000   -999.2500   -999.2500   -999.2500     53.8751   -999.2500   -999.2500   -999.2500   -999.2500   -999.2500   -999.2500   -999.2500   -999.2500   -999.2500   -999.2500
   8898.5000   -999.2500   -999.2500   -999.2500     49.2059   -999.2500   -999.2500   -999.2500   -999.2500   -999.2500   -999.2500   -999.2500   -999.2500   -999.2500   -999.2500
   8899.0000   -999.2500   -999.2500   -999.2500     45.6512   -999.2500   -999.2500   -999.2500   -999.2500   -999.2500   -999.2500   -999.2500   -999.2500   -999.2500   -999.2500
   8899.5000   -999.2500   -999.2500   -999.2500     46.5330   -999.2500   -999.2500   -999.2500   -999.2500   -999.2500   -999.2500   -999.2500   -999.2500   -999.2500   -999.2500
   8900.0000   -999.2500   -999.2500   -999.2500     47.2460   -999.2500   -999.2500   -999.2500   -999.2500   -999.2500   -999.2500   -999.2500   -999.2500   -999.2500   -999.2500
   8900.5000   -999.2500   -999.2500   -999.2500     47.8008   -999.2500   -999.2500   -999.2500   -999.2500   -999.2500   -999.2500   -999.2500   -999.2500   -999.2500   -999.2500
   8901.0000   -999.2500   -999.2500   -999.2500     48.3665   -999.2500   -999.2500   -999.2500   -999.2500   -999.2500   -999.2500   -999.2500   -999.2500   -999.2500   -999.2500
   8901.5000   -999.2500   -999.2500   -999.2500     49.6777   -999.2500   -999.2500   -999.2500   -999.2500   -999.2500   -999.2500   -999.2500   -999.2500   -999.2500   -999.2500
   8902.0000   -999.2500   -999.2500   -999.2500     51.8482   -999.2500   -999.2500   -999.2500   -999.2500   -999.2500   -999.2500   -999.2500   -999.2500   -999.2500   -999.2500
   8902.5000   -999.2500   -999.2500   -999.2500     54.1106   -999.2500   -999.2500   -999.2500   -999.2500   -999.2500   -999.2500   -999.2500   -999.2500   -999.2500   -999.2500
   8903.0000   -999.2500   -999.2500   -999.2500     56.9615   -999.2500   -999.2500   -999.2500   -999.2500   -999.2500   -999.2500   -999.2500   -999.2500   -999.2500   -999.2500
   8903.5000   -999.2500   -999.2500   -999.2500     60.1174   -999.2500   -999.2500   -999.2500   -999.2500   -999.2500   -999.2500   -999.2500   -999.2500   -999.2500   -999.2500
   8904.0000   -999.2500   -999.2500   -999.2500     60.2868   -999.2500   -999.2500   -999.2500   -999.2500   -999.2500   -999.2500   -999.2500   -999.2500   -999.2500   -999.2500
   8904.5000   -999.2500   -999.2500   -999.2500     62.6727   -999.2500   -999.2500   -999.2500   -999.2500   -999.2500   -999.2500   -999.2500   -999.2500   -999.2500   -999.2500
   8905.0000   -999.2500   -999.2500   -999.2500     65.2817   -999.2500   -999.2500   -999.2500   -999.2500   -999.2500   -999.2500   -999.2500   -999.2500   -999.2500   -999.2500
   8905.5000   -999.2500   -999.2500   -999.2500     67.0758   -999.2500   -999.2500   -999.2500   -999.2500   -999.2500   -999.2500   -999.2500   -999.2500   -999.2500   -999.2500
   8906.0000   -999.2500   -999.2500   -999.2500     69.0200   -999.2500   -999.2500   -999.2500   -999.2500   -999.2500   -999.2500   -999.2500   -999.2500   -999.2500   -999.2500
   8906.5000   -999.2500   -999.2500   -999.2500     71.9797   -999.2500   -999.2500   -999.2500   -999.2500   -999.2500   -999.2500   -999.2500   -999.2500   -999.2500   -999.2500
   8907.0000   -999.2500   -999.2500   -999.2500     72.3503   -999.2500   -999.2500   -999.2500   -999.2500   -999.2500   -999.2500   -999.2500   -999.2500   -999.2500   -999.2500
   8907.5000   -999.2500   -999.2500   -999.2500     73.5718   -999.2500   -999.2500   -999.2500   -999.2500   -999.2500   -999.2500   -999.2500   -999.2500   -999.2500   -999.2500
   8908.0000   -999.2500   -999.2500   -999.2500     78.2412   -999.2500   -999.2500   -999.2500   -999.2500   -999.2500   -999.2500   -999.2500   -999.2500   -999.2500   -999.2500
   8908.5000   -999.2500   -999.2500   -999.2500     81.6296   -999.2500   -999.2500   -999.2500   -999.2500   -999.2500   -999.2500   -999.2500   -999.2500   -999.2500   -999.2500
   8909.0000   -999.2500   -999.2500   -999.2500     84.7511   -999.2500   -999.2500   -999.2500   -999.2500   -999.2500   -999.2500   -999.2500   -999.2500   -999.2500   -999.2500
   8909.5000   -999.2500   -999.2500   -999.2500     89.8497   -999.2500   -999.2500   -999.2500   -999.2500   -999.2500   -999.2500   -999.2500   -999.2500   -999.2500   -999.2500
   8910.0000   -999.2500   -999.2500   -999.2500     90.6010   -999.2500   -999.2500   -999.2500   -999.2500   -999.2500   -999.2500   -999.2500   -999.2500   -999.2500   -999.2500
   8910.5000   -999.2500   -999.2500   -999.2500     84.0343   -999.2500   -999.2500   -999.2500   -999.2500   -999.2500   -999.2500   -999.2500   -999.2500   -999.2500   -999.2500
   8911.0000   -999.2500   -999.2500   -999.2500     76.6779   -999.2500   -999.2500   -999.2500   -999.2500   -999.2500   -999.2500   -999.2500   -999.2500   -999.2500   -999.2500
   8911.5000   -999.2500   -999.2500   -999.2500     72.1189   -999.2500   -999.2500   -999.2500   -999.2500   -999.2500   -999.2500   -999.2500   -999.2500   -999.2500   -999.2500
   8912.0000   -999.2500   -999.2500   -999.2500     69.2043   -999.2500   -999.2500   -999.2500   -999.2500   -999.2500   -999.2500   -999.2500   -999.2500   -999.2500   -999.2500
   8912.5000   -999.2500   -999.2500   -999.2500     72.2950   -999.2500   -999.2500   -999.2500   -999.2500   -999.2500   -999.2500   -999.2500   -999.2500   -999.2500   -999.2500
   8913.0000   -999.2500   -999.2500   -999.2500     76.4724   -999.2500   -999.2500   -999.2500   -999.2500   -999.2500   -999.2500   -999.2500   -999.2500   -999.2500   -999.2500
   8913.5000   -999.2500   -999.2500   -999.2500     81.5066   -999.2500   -999.2500   -999.2500   -999.2500   -999.2500   -999.2500   -999.2500   -999.2500   -999.2500   -999.2500
   8914.0000   -999.2500   -999.2500   -999.2500     85.7249   -999.2500   -999.2500   -999.2500   -999.2500   -999.2500   -999.2500   -999.2500   -999.2500   -999.2500   -999.2500
   8914.5000   -999.2500   -999.2500   -999.2500     87.0259   -999.2500   -999.2500   -999.2500   -999.2500   -999.2500   -999.2500   -999.2500   -999.2500   -999.2500   -999.2500
   8915.0000   -999.2500   -999.2500   -999.2500     84.8947   -999.2500   -999.2500   -999.2500   -999.2500   -999.2500   -999.2500   -999.2500   -999.2500   -999.2500   -999.2500
   8915.5000   -999.2500   -999.2500   -999.2500     79.1714   -999.2500   -999.2500   -999.2500   -999.2500   -999.2500   -999.2500   -999.2500   -999.2500   -999.2500   -999.2500
   8916.0000   -999.2500   -999.2500   -999.2500     77.1367   -999.2500   -999.2500   -999.2500   -999.2500   -999.2500   -999.2500   -999.2500   -999.2500   -999.2500   -999.2500
   8916.5000   -999.2500   -999.2500   -999.2500     80.2672   -999.2500   -999.2500   -999.2500   -999.2500   -999.2500   -999.2500   -999.2500   -999.2500   -999.2500   -999.2500
   8917.0000   -999.2500   -999.2500   -999.2500     83.5730   -999.2500   -999.2500   -999.2500   -999.2500   -999.2500   -999.2500   -999.2500   -999.2500   -999.2500   -999.2500
   8917.5000   -999.2500   -999.2500   -999.2500     82.1158   -999.2500   -999.2500   -999.2500   -999.2500   -999.2500   -999.2500   -999.2500   -999.2500   -999.2500   -999.2500
   8918.0000   -999.2500   -999.2500   -999.2500     80.7022   -999.2500   -999.2500   -999.2500   -999.2500   -999.2500   -999.2500   -999.2500   -999.2500   -999.2500   -999.2500
   8918.5000   -999.2500   -999.2500   -999.2500     80.2703   -999.2500   -999.2500   -999.2500   -999.2500   -999.2500   -999.2500   -999.2500   -999.2500   -999.2500   -999.2500
   8919.0000   -999.2500   -999.2500   -999.2500     74.6641   -999.2500   -999.2500   -999.2500   -999.2500   -999.2500   -999.2500   -999.2500   -999.2500   -999.2500   -999.2500
   8919.5000   -999.2500   -999.2500   -999.2500     67.9033   -999.2500   -999.2500   -999.2500   -999.2500   -999.2500   -999.2500   -999.2500   -999.2500   -999.2500   -999.2500
   8920.0000      6.3384   -999.2500   -999.2500     68.8985   -999.2500   -999.2500   -999.2500   -999.2500   -999.2500   -999.2500   -999.2500   -999.2500   -999.2500   -999.2500
   8920.5000      6.5078   -999.2500   -999.2500     80.9021   -999.2500   -999.2500   -999.2500   -999.2500   -999.2500   -999.2500   -999.2500   -999.2500   -999.2500   -999.2500
   8921.0000      7.0036   -999.2500   -999.2500     96.2891   -999.2500   -999.2500   -999.2500   -999.2500   -999.2500   -999.2500   -999.2500   -999.2500   -999.2500   -999.2500
   8921.5000      8.3375   -999.2500   -999.2500    116.3613   -999.2500   -999.2500   -999.2500   -999.2500   -999.2500   -999.2500   -999.2500   -999.2500   -999.2500   -999.2500
   8922.0000     11.7891    171.7472     86.5657    139.3124   -999.2500      3.5251      0.5942   -999.2500   -999.2500      0.6224   -999.2500  11551.9141   -999.2500   5822.5117
   8922.5000     16.4751    171.7398     86.5638    185.2602   -999.2500      3.5403      0.5746   -999.2500   -999.2500      0.5855   -999.2500  11552.1670   -999.2500   5822.7617
   8923.0000     19.5036    171.7325     86.5619    194.9804   -999.2500      3.5627      0.5580   -999.2500   -999.2500      0.5801   -999.2500  11552.4229   -999.2500   5823.0112
   8923.5000     19.2485    171.7287     86.5600    194.0052   -999.2500      3.5925      0.5375   -999.2500   -999.2500      0.5993   -999.2500  11552.6807   -999.2500   5823.1367
   8924.0000     16.8800    171.7214     86.5581    196.6554   -999.2500      3.6287      0.5312   -999.2500   -999.2500      0.6570   -999.2500  11552.9385   -999.2500   5823.3862
   8924.5000     14.7028    171.7140     86.5561    193.8094   -999.2500      3.6789      0.5428   -999.2500   -999.2500      0.7207   -999.2500  11553.1963   -999.2500   5823.6362
   8925.0000     12.9338    171.7103     86.5542    176.8372   -999.2500      3.7320      0.5422      0.1028      2.4803      1.0000   -999.2500  11553.4531   -999.2500   5823.7617
   8925.5000     13.2011    171.7030     86.5523    179.6913   -999.2500      3.7803      0.5473      0.1028      2.4804      1.0000   -999.2500  11553.7109   -999.2500   5824.0117
   8926.0000     14.2530    171.6956     86.5504    187.6966   -999.2500      3.8215      0.5410      0.1028      2.4804      1.0000   -999.2500  11553.9678   -999.2500   5824.2612
   8926.5000     15.1389    171.6919     86.5484    195.3112   -999.2500      3.8600      0.5558      0.1028      2.4804      1.0000   -999.2500  11554.2256   -999.2500   5824.3862
   8927.0000     15.3610    171.6845     86.5465    191.7045   -999.2500      3.8577      0.5741      0.1028      2.4804      1.0000   -999.2500  11554.4834   -999.2500   5824.6362
   8927.5000     16.1645    171.6772     86.5446    201.4507   -999.2500      3.7913      0.5701      0.1028      2.4804      1.0000   -999.2500  11554.7412   -999.2500   5824.8862
   8928.0000     16.8653    171.6735     86.5426    214.9306   -999.2500      3.6386      0.5676      0.1028      2.4804      1.0000   -999.2500  11554.9990   -999.2500   5825.0117
   8928.5000     15.7128    171.6661     86.5407    227.9939   -999.2500      3.4063      0.5514      0.1028      2.4804      1.0000   -999.2500  11555.2539   -999.2500   5825.2617
   8929.0000     13.7008    171.6551     86.5388    218.9472   -999.2500      3.1502      0.5021      0.1028      2.4805      1.0000   -999.2500  11555.5078   -999.2500   5825.6353
   8929.5000     12.7642    171.6477     86.5369    215.6793   -999.2500      2.9539      0.4919      0.1027      2.4805      1.0000   -999.2500  11555.7656   -999.2500   5825.8853
   8930.0000     12.6724    171.6440     86.5349    204.7830   -999.2500      2.8621      0.4900      0.1027      2.4805      1.0000   -999.2500  11556.0273   -999.2500   5826.0107
   8930.5000     12.5449    171.6367     86.5330    175.9600   -999.2500      2.8932      0.5201      0.1027      2.4805      1.0000   -999.2500  11556.2812   -999.2500   5826.2607
   8931.0000     13.5258    171.6293     86.5311    169.5548   -999.2500      2.8859      0.5166      0.1027      2.4805      1.0000   -999.2500  11556.5381   -999.2500   5826.5107
   8931.5000     15.1661    171.6256     86.5292    170.9855   -999.2500      2.9342      0.5072      0.1027      2.4805      1.0000   -999.2500  11556.7959   -999.2500   5826.6362
   8932.0000     15.3477    171.6183     86.5272    178.3428   -999.2500      2.8660      0.5136      0.1027      2.4805      1.0000   -999.2500  11557.0537   -999.2500   5826.8853
   8932.5000     14.6231    171.6146     86.5253    178.4166   -999.2500      3.0937      0.5066      0.1027      2.4805      1.0000   -999.2500  11557.3115   -999.2500   5827.0107
   8933.0000     14.1341    171.6072     86.5234    190.5791   -999.2500      3.3165      0.5007      0.1027      2.4806      1.0000   -999.2500  11557.5693   -999.2500   5827.2607
   8933.5000     13.3767    169.9235     86.0116    198.1329   -999.2500      3.5218      0.5074      0.1027      2.4806      1.0000   -999.2500  11626.3389   -999.2500   5885.0000
   8934.0000     13.1898    171.5888     86.5196    197.0592   -999.2500      3.7633      0.5161      0.1027      2.4806      1.0000   -999.2500  11558.0801   -999.2500   5827.8848
   8934.5000     12.6149    171.5925     86.5176    191.5423   -999.2500      4.0048      0.5024      0.1027      2.4806      1.0000   -999.2500  11558.3369   -999.2500   5827.7617
   8935.0000     10.3958    171.5778     86.5157    177.0649   -999.2500      3.9815      0.4873      0.1027      2.4806      1.0000   -999.2500  11558.5947   -999.2500   5828.2598
   8935.5000      9.2066    171.5741     86.5138    178.6158   -999.2500      4.0590      0.4150      0.1027      2.4806      1.0000   -999.2500  11558.8525   -999.2500   5828.3853
   8936.0000     10.0508    171.5704     86.5118    193.1146   -999.2500      4.1493      0.4109      0.1026      2.4806      1.0000   -999.2500  11559.1104   -999.2500   5828.5107
   8936.5000     11.2540    170.1729     86.0876    204.3246   -999.2500      4.0816      0.3982      0.1026      2.4807      1.0000   -999.2500  11616.0742   -999.2500   5876.3765
   8937.0000     11.7556    138.9431     75.6422    206.5329   -999.2500      4.0028      0.4117      0.1026      2.4807      1.0000   -999.2500  13220.1348   -999.2500   7197.1890
   8937.5000     12.6283    161.9611     83.5263    225.1614   -999.2500      3.8450      0.4148      0.1026      2.4807      1.0000   -999.2500  11972.2773   -999.2500   6174.3228
   8938.0000     12.2177    171.5447     86.5042    224.1508   -999.2500      3.8818      0.4577      0.1026      2.4807      1.0000   -999.2500  11560.1367   -999.2500   5829.3853
   8938.5000     11.7906    171.5373     86.5022    206.4796   -999.2500      3.8212      0.4631      0.1026      2.4807      1.0000   -999.2500  11560.3945   -999.2500   5829.6353
   8939.0000     12.3402    171.5336     86.5003    196.7188   -999.2500      3.5893      0.4859      0.1026      2.4807      1.0000   -999.2500  11560.6514   -999.2500   5829.7607
   8939.5000     13.9849    171.5263     86.4984    205.1389   -999.2500      3.3758      0.5706      0.1026      2.4807      1.0000   -999.2500  11560.9102   -999.2500   5830.0107
   8940.0000     15.1570    171.5189     86.4965    197.1412   -999.2500      3.1912      0.5932      0.1026      2.4807      1.0000   -999.2500  11561.1631   -999.2500   5830.2603
   8940.5000     16.0289    162.1547     83.5871    179.3889   -999.2500      2.9855      0.6177      0.1026      2.4808      1.0000   -999.2500  11963.5693   -999.2500   6166.9497
   8941.0000     17.6272    168.4284     85.5531    159.4842   -999.2500      2.7674      0.6228      0.1026      2.4808      1.0000   -999.2500  11688.6475   -999.2500   5937.2407
   8941.5000     18.9517    136.3548     74.6789    149.9199   -999.2500      3.0462      0.6144      0.1026      2.4808      1.0000   -999.2500  13390.6631   -999.2500   7333.8062
   8942.0000     20.3294    164.0262     84.1825    150.1153   -999.2500      3.2894      0.5166      0.1025      2.4808      1.0000   -999.2500  11878.9531   -999.2500   6096.5859
   8942.5000     20.7914    169.8405     85.9850    146.1032   -999.2500      3.4949      0.4675      0.1025      2.4808      1.0000   -999.2500  11629.9355   -999.2500   5887.8755
   8943.0000     19.0913    153.8546     80.8780    141.0863   -999.2500      3.7510      0.4465      0.1025      2.4808      1.0000   -999.2500  12364.3018   -999.2500   6499.6440
   8943.5000     17.1589    138.2349     75.3796    137.4245   -999.2500      3.6091      0.4145      0.1025      2.4808      1.0000   -999.2500  13266.1885   -999.2500   7234.0620
   8944.0000     15.9578    115.6027     66.2054    137.7759   -999.2500      3.5809      0.4148      0.1025      2.4808      1.0000   -999.2500  15104.5088   -999.2500   8650.3193
   8944.5000     14.5439    144.5094     77.6572    125.7515   -999.2500      3.4831      0.4490      0.1025      2.4809      1.0000   -999.2500  12877.1055   -999.2500   6919.9629
   8945.0000     14.7468    171.4528     86.4772    122.6737   -999.2500      3.3445      0.4893      0.1025      2.4809      1.0000   -999.2500  11563.7373   -999.2500   5832.5093
   8945.5000     16.0087    148.9095     79.1955    130.5541   -999.2500      3.2456      0.5721      0.1025      2.4809      1.0000   -999.2500  12626.9795   -999.2500   6715.4888
   8946.0000     16.3422    161.2398     83.2965    137.3169   -999.2500      3.2627      0.5673      0.1025      2.4809      1.0000   -999.2500  12005.3066   -999.2500   6201.9429
   8946.5000     15.8756    171.4307     86.4715    159.1141   -999.2500      3.5096      0.5731      0.1025      2.4809      1.0000   -999.2500  11564.5068   -999.2500   5833.2593
   8947.0000     16.4340    171.4307     86.4696    191.5542   -999.2500      3.4757      0.5588      0.1025      2.4809      1.0000   -999.2500  11564.7637   -999.2500   5833.2598
   8947.5000     18.8420    171.4234     86.4676    211.6044   -999.2500      3.4446      0.4736      0.1025      2.4809      1.0000   -999.2500  11565.0215   -999.2500   5833.5098
   8948.0000     20.3145    171.4161     86.4657    222.2663   -999.2500      3.4906      0.4230      0.1025      2.4810      1.0000   -999.2500  11565.2754   -999.2500   5833.7593
   8948.5000     19.7969    171.4124     86.4638    228.3385   -999.2500      3.4161      0.4401      0.1024      2.4810      1.0000   -999.2500  11565.5381   -999.2500   5833.8848
   8949.0000     19.9234    171.4050     86.4619    226.4132   -999.2500      3.1214      0.4792      0.1024      2.4810      1.0000   -999.2500  11565.7920   -999.2500   5834.1348
   8949.5000     19.4313    171.3977     86.4599    215.9718   -999.2500      3.1942      0.5024      0.1024      2.4810      1.0000   -999.2500  11566.0498   -999.2500   5834.3848
   8950.0000     18.0392    171.3911     86.4577    201.8634   -999.2500      2.7754      0.5158      0.1024      2.4810      1.0000   -999.2500  11566.3486   -999.2500   5834.6084
   8950.5000     17.1263    171.3911     86.4558    181.9088   -999.2500      2.8887      0.5660      0.1024      2.4810      1.0000   -999.2500  11566.6064   -999.2500   5834.6094
   8951.0000     17.1398    171.3764     86.4539    168.8193   -999.2500      3.0183      0.5475      0.1024      2.4810      1.0000   -999.2500  11566.8594   -999.2500   5835.1084
   8951.5000     17.0050    171.3727     86.4520    179.4224   -999.2500      3.1303      0.5242      0.1024      2.4811      1.0000   -999.2500  11567.1182   -999.2500   5835.2339
   8952.0000     15.5050    147.1247     78.5760    185.0993   -999.2500      3.2407      0.4625      0.1024      2.4811      1.0000   -999.2500  12726.5332   -999.2500   6796.9536
   8952.5000     14.4602    156.3536     81.7064    180.6273   -999.2500      3.1544      0.4570      0.1024      2.4811      1.0000   -999.2500  12238.9434   -999.2500   6395.7607
   8953.0000     15.2323    155.9574     81.5763    180.1199   -999.2500      2.7962      0.4828      0.1024      2.4811      1.0000   -999.2500  12258.4619   -999.2500   6412.0078
   8953.5000     16.3848    160.6158     83.0953    173.6334   -999.2500      2.5221      0.5238      0.1024      2.4811      1.0000   -999.2500  12034.3750   -999.2500   6226.0381
   8954.0000     17.6705    152.0627     80.2738    157.7765   -999.2500      2.1534      0.5492      0.1024      2.4811      1.0000   -999.2500  12457.3643   -999.2500   6576.2329
   8954.5000     18.5537    167.0403     85.1246    142.0194   -999.2500      2.0763      0.5456      0.1023      2.4811      1.0000   -999.2500  11747.4854   -999.2500   5986.5806
   8955.0000     19.4239    171.3287     86.4385    139.8742   -999.2500      1.9396      0.4997      0.1023      2.4811      1.0000   -999.2500  11568.9160   -999.2500   5836.7329
   8955.5000     20.0822    171.3177     86.4366    149.4014   -999.2500      1.9762      0.4731      0.1023      2.4812      1.0000   -999.2500  11569.1729   -999.2500   5837.1074
   8956.0000     18.8286    171.3140     86.4347    163.9380   -999.2500      2.0609      0.4742      0.1023      2.4812      1.0000   -999.2500  11569.4277   -999.2500   5837.2329
   8956.5000     17.4292    171.3104     86.4328    181.0483   -999.2500      2.0721      0.4886      0.1023      2.4812      1.0000   -999.2500  11569.6855   -999.2500   5837.3584
   8957.0000     17.8272    171.2994     86.4308    195.2649   -999.2500      2.1003      0.4883      0.1023      2.4812      1.0000   -999.2500  11569.9443   -999.2500   5837.7329
   8957.5000     17.8654    171.2957     86.4289    196.2083   -999.2500      1.9761      0.5012      0.1023      2.4812      1.0000   -999.2500  11570.1982   -999.2500   5837.8574
   8958.0000     17.3784    171.2884     86.4270    199.5892   -999.2500      1.9165      0.5042      0.1023      2.4812      1.0000   -999.2500  11570.4600   -999.2500   5838.1074
   8958.5000     16.1913    171.2847     86.4251    180.6353   -999.2500      1.8877      0.5807      0.1023      2.4812      1.0000   -999.2500  11570.7148   -999.2500   5838.2329
   8959.0000     15.1793    171.2774     86.4232    163.9746   -999.2500      1.8644      0.5920      0.1023      2.4813      1.0000   -999.2500  11570.9727   -999.2500   5838.4829
   8959.5000     15.7218    171.2737     86.4212    158.0421   -999.2500      1.9693      0.5988      0.1023      2.4813      1.0000   -999.2500  11571.2305   -999.2500   5838.6084
   8960.0000     17.2311    171.2627     86.4193    165.0800   -999.2500      2.0206      0.5968      0.1023      2.4813      1.0000   -999.2500  11571.4844   -999.2500   5838.9824
   8960.5000     17.9707    171.2590     86.4174    171.7416   -999.2500      2.0987      0.5904      0.1022      2.4813      1.0000   -999.2500  11571.7422   -999.2500   5839.1074
   8961.0000     17.6886    171.2554     86.4155    166.6870   -999.2500      2.0856      0.6225      0.1022      2.4813      1.0000   -999.2500  11572.0010   -999.2500   5839.2329
   8961.5000     16.8703    171.2444     86.4136    157.9217   -999.2500      1.9229      0.5884      0.1022      2.4813      1.0000   -999.2500  11572.2549   -999.2500   5839.6074
   8962.0000     16.1840    171.2371     86.4117    146.4060   -999.2500      1.8716      0.5436      0.1022      2.4813      1.0000   -999.2500  11572.5137   -999.2500   5839.8574
   8962.5000     16.0017    171.2334     86.4097    137.1982   -999.2500      1.7065      0.5643      0.1022      2.4813      1.0000   -999.2500  11572.7715   -999.2500   5839.9829
   8963.0000     16.6619    171.2297     86.4078    131.8563   -999.2500      1.7089      0.5884      0.1022      2.4814      1.0000   -999.2500  11573.0254   -999.2500   5840.1079
   8963.5000     17.4329    171.2188     86.4059    124.9282   -999.2500      1.7082      0.6158      0.1022      2.4814      1.0000   -999.2500  11573.2842   -999.2500   5840.4819
   8964.0000     18.7770    171.2078     86.4040    137.7879   -999.2500      1.7387      0.5703      0.1022      2.4814      1.0000   -999.2500  11573.5420   -999.2500   5840.8564
   8964.5000     19.0329    171.2114     86.4021    146.3359   -999.2500      1.8721      0.5938      0.1022      2.4814      1.0000   -999.2500  11573.7969   -999.2500   5840.7329
   8965.0000     18.1959    171.2041     86.4001    144.7655   -999.2500      1.9523      0.5848      0.1022      2.4814      1.0000   -999.2500  11574.0557   -999.2500   5840.9829
   8965.5000     17.4365    171.1931     86.3982    149.9202   -999.2500      2.0183      0.5938      0.1022      2.4814      1.0000   -999.2500  11574.3135   -999.2500   5841.3574
   8966.0000     17.6035    171.1858     86.3963    151.4843   -999.2500      2.1912      0.6099      0.1022      2.4814      1.0000   -999.2500  11574.5664   -999.2500   5841.6064
   8966.5000     17.6794    171.1785     86.3944    151.8168   -999.2500      2.3759      0.5908      0.1022      2.4814      1.0000   -999.2500  11574.8252   -999.2500   5841.8564
   8967.0000     17.0958    171.1784     86.3925    160.4605   -999.2500      2.5880      0.5890      0.1021      2.4815      1.0000   -999.2500  11575.0840   -999.2500   5841.8574
   8967.5000     17.1984    171.1711     86.3906    166.7272   -999.2500      2.6853      0.5821      0.1021      2.4815      1.0000   -999.2500  11575.3379   -999.2500   5842.1074
   8968.0000     17.7592    171.1601     86.3886    173.3873   -999.2500      2.7697      0.5641      0.1021      2.4815      1.0000   -999.2500  11575.5957   -999.2500   5842.4819
   8968.5000     17.1583    171.1565     86.3867    169.6591   -999.2500      2.7180      0.5523      0.1021      2.4815      1.0000   -999.2500  11575.8506   -999.2500   5842.6069
   8969.0000     16.8904    171.1492     86.3848    159.9477   -999.2500      2.6066      0.5655      0.1021      2.4815      1.0000   -999.2500  11576.1094   -999.2500   5842.8564
   8969.5000     17.8000    171.1418     86.3829    160.3829   -999.2500      2.6650      0.6027      0.1021      2.4815      1.0000   -999.2500  11576.3682   -999.2500   5843.1064
   8970.0000     17.4531    171.1382     86.3810    162.3097   -999.2500      2.5678      0.6031      0.1021      2.4815      1.0000   -999.2500  11576.6221   -999.2500   5843.2319
   8970.5000     16.6970    171.1345     86.3791    160.2676   -999.2500      2.4203      0.5926      0.1021      2.4816      1.0000   -999.2500  11576.8799   -999.2500   5843.3574
   8971.0000     16.9762    171.1235     86.3771    157.5949   -999.2500      2.3991      0.5833      0.1021      2.4816      1.0000   -999.2500  11577.1387   -999.2500   5843.7319
   8971.5000     17.1755    171.1199     86.3752    145.8957   -999.2500      2.3326      0.5864      0.1021      2.4816      1.0000   -999.2500  11577.3936   -999.2500   5843.8569
   8972.0000     16.9576    171.1162     86.3733    141.5353      3.0000      2.3363      0.6203      0.1021      2.4816      1.0000   -999.2500  11577.6523      1.0000   5843.9824
   8972.5000     17.7439    171.1016     86.3714    147.8976      3.0000      2.1797      0.6119      0.1021      2.4816      1.0000   -999.2500  11577.9053      1.0000   5844.4810
   8973.0000     19.8433    171.0979     86.3695    161.2356      3.0000      2.1541      0.5913      0.1020      2.4816      1.0000   -999.2500  11578.1631      1.0000   5844.6064
   8973.5000     20.5463    171.0942     86.3676    167.3613      3.0000      2.0389      0.5826      0.1020      2.4816      1.0000   -999.2500  11578.4219      1.0000   5844.7319
   8974.0000     20.9730    171.0869     86.3657    165.3195      3.0000      2.1723      0.5720      0.1020      2.4816      1.0000   -999.2500  11578.6768      1.0000   5844.9814
   8974.5000     21.9131    171.1962     86.3637    174.4019      3.0000      2.0479      0.5197      0.1020      2.4817      1.0000   -999.2500  11578.9355      1.0000   5841.2500
   8975.0000     19.5112    171.1889     86.3618    182.7159      3.0000      1.8654      0.4913      0.1020      2.4817      1.0000   -999.2500  11579.1904      1.0000   5841.5000
   8975.5000     15.5856    171.1852     86.3599    190.4158      3.0000      1.8621      0.4555      0.1020      2.4817      1.0000   -999.2500  11579.4482      1.0000   5841.6250
   8976.0000     13.0000    171.1743     86.3580    191.7309      3.0000      1.8409      0.4283      0.1020      2.4817      1.0000   -999.2500  11579.7070      1.0000   5842.0000
   8976.5000     11.9084    171.1706     86.3561    196.8906      3.0000      2.0307      0.4273      0.1020      2.4817      1.0000   -999.2500  11579.9619      1.0000   5842.1250
   8977.0000     11.2635    171.1669     86.3541    189.3396      3.0000      2.1333      0.4376      0.1020      2.4817      1.0000   -999.2500  11580.2207      1.0000   5842.2500
   8977.5000     11.2620    171.1559     86.3522    191.3231      3.0000      2.1793      0.4299      0.1020      2.4817      1.0000   -999.2500  11580.4756      1.0000   5842.6250
   8978.0000     11.3970    171.1486     86.3503    189.6088      3.0000      2.2646      0.4223      0.1020      2.4818      1.0000   -999.2500  11580.7334      1.0000   5842.8750
   8978.5000     11.5352    171.1450     86.3484    181.6695      3.0000      2.4209      0.4044      0.1020      2.4818      1.0000   -999.2500  11580.9883      1.0000   5843.0000
   8979.0000     11.4696    171.1376     86.3465    166.3900      3.0000      2.4888      0.3945      0.1020      2.4818      1.0000   -999.2500  11581.2461      1.0000   5843.2500
   8979.5000     10.7609    171.1266     86.3446    153.1707      3.0000      2.4431      0.3956      0.1019      2.4818      1.0000   -999.2500  11581.5049      1.0000   5843.6250
   8980.0000      9.1842    171.1193     86.3427    148.2651      3.0000      2.3361      0.4455      0.1019      2.4818      1.0000   -999.2500  11581.7598      1.0000   5843.8750
   8980.5000      8.2918    171.1193     86.3407    161.3009      3.0000      2.2881      0.4947      0.1019      2.4818      1.0000   -999.2500  11582.0176      1.0000   5843.8750
   8981.0000      7.6154    171.1157     86.3388    158.3691      3.0000      2.3622      0.5633      0.1019      2.4818      1.0000   -999.2500  11582.2725      1.0000   5844.0000
   8981.5000      6.7817    146.1721     78.2142    130.5582      3.0000      3.0047      0.5931      0.1019      2.4818      1.0000   -999.2500  12785.4014      1.0000   6841.2500
   8982.0000      6.3514    120.1580     68.1727     95.2221      3.0000      4.6255      0.5943      0.1892      2.3377      1.0000   -999.2500  14668.6289      1.0000   8322.3750
   8982.5000      6.0591    134.4786     73.9442     45.6385      3.0000     10.4493      0.4186      0.1432      2.4137      1.0000   -999.2500  13523.7109      1.0000   7436.1250
   8983.0000      6.0026    157.1567     85.3170     20.7575      3.0000     19.1280      0.2008      0.1088      2.4705      1.0000      0.7694  11720.9932      0.5486   6363.0757
   8983.5000      5.9624    175.2532     90.7490     17.2627      3.0000     20.1494      0.2196      0.0981      2.4881      1.0000      0.7947  11019.4053      0.6329   5706.0303
   8984.0000      5.8682    179.8515     92.5545     21.3610      3.0000     35.5954      0.2516      0.1428      2.4144      0.7430      0.7034  10804.4453      0.5967   5560.1416
   8984.5000      5.8049    178.5491     93.5566     24.3105      2.0000     36.0549      0.2696      0.2125      2.2994      0.5114      0.6904  10688.7168      0.4489   5600.7002
   8985.0000      5.8044    178.0899     94.5447     25.2399      2.0000     33.3165      0.2762      0.2593      2.2221      0.4430      0.5812  10577.0078      0.3339   5615.1421
   8985.5000      5.8927    182.3206     96.1723     20.7811      2.0000     33.5430      0.2801      0.2700      2.2044      0.4253      0.5578  10398.0039      0.3144   5484.8438
   8986.0000      5.9180    181.7756     96.1914     20.8153      2.0000     25.3224      0.2719      0.2686      2.2068      0.4937      0.5610  10395.9385      0.2951   5501.2896
   8986.5000      5.8324    179.2457     95.6287     20.7933      2.0000     24.7603      0.2719      0.2787      2.1902      0.4827      0.5394  10457.1113      0.2664   5578.9341
   8987.0000      5.8136    173.6458     94.1325     18.4767      1.0000     28.1561      0.2631      0.2859      2.1783      0.4414      0.0750  10623.3232      0.2206   5758.8501
   8987.5000      5.8161    178.5752     96.2600     15.7981      1.0000     28.5002      0.2565      0.2923      2.1677      0.4298      0.0710  10388.5312      0.1835   5599.8804
   8988.0000      5.7900    178.3321     96.2621     17.8401      1.0000     24.4822      0.2551      0.2938      2.1652      0.4624      0.0701  10388.3057      0.1751   5607.5166
   8988.5000      5.7941    176.5026     95.9087     20.4145      1.0000     27.0272      0.2455      0.2941      2.1647      0.4391      0.0700  10426.5830      0.1468   5665.6387
   8989.0000      5.8333    172.4927     94.3838     24.5221      1.0000     25.1843      0.2260      0.2720      2.2012      0.4894      0.0838  10595.0391      0.1543   5797.3467
   8989.5000      5.8719    169.1635     92.3986     26.8878      2.0000     23.4211      0.2101      0.2285      2.2729      0.5965      0.6529  10822.6748      0.2330   5911.4419
   8990.0000      5.9178    168.0961     91.0601     27.2982      2.0000     20.0892      0.1975      0.1805      2.3522      0.8024      0.7713  10981.7588      0.3343   5948.9766
   8990.5000      5.9278    165.7191     89.4751     27.3787      3.0000     19.4870      0.1999      0.1543      2.3954      0.9421      0.6846  11176.2939      0.4161   6034.3076
   8991.0000      5.9103    163.0839     88.5698     30.2939      2.0000     20.2610      0.2104      0.1661      2.3759      0.8626      0.8078  11290.5303      0.4123   6131.8135
   8991.5000      5.9222    166.3763     90.1740     41.0569      2.0000     15.2145      0.2291      0.2017      2.3173      0.8353      0.7188  11089.6709      0.3641   6010.4697
   8992.0000      6.0115    164.0131     89.7865     46.3261      2.0000     12.8609      0.2391      0.2298      2.2709      0.8072      0.6505  11137.5322      0.3124   6097.0747
   8992.5000      6.1808    163.6024     89.6190     55.3533      2.0000      9.7773      0.2399      0.2299      2.2706      0.9284      0.6503  11158.3477      0.3142   6112.3804
   8993.0000      6.5255    157.6087     86.8447     80.5493      3.0000      7.7139      0.2396      0.2066      2.3092      1.0000      0.7071  11514.8066      0.3801   6344.8281
   8993.5000      7.2903    155.9456     85.3452    104.1538      3.0000      7.2198      0.2364      0.1650      2.3777      1.0000      0.8112  11717.1211      0.4896   6412.4917
   8994.0000      8.2096    158.6693     85.3742    119.8764      3.0000      6.8389      0.2298      0.1165      2.4578      1.0000      0.7539  11713.1406      0.6094   6302.4155
   8994.5000      8.5566    160.0391     85.5868    131.8875      3.0000      6.7071      0.2425      0.1175      2.4562      1.0000      0.7520  11684.0449      0.6429   6248.4741
   8995.0000      7.9738    162.3645     86.4110    142.7894      3.0000      6.3451      0.2443      0.1203      2.4515      1.0000      0.7463  11572.6006      0.6400   6158.9819
   8995.5000      6.8051    160.5588     85.5415    126.4069      3.0000      6.2663      0.2559      0.1210      2.4504      1.0000      0.7451  11690.2324      0.6713   6228.2461
   8996.0000      6.2795    173.6842     89.0288    101.9655      3.0000      6.9277      0.2456      0.0757      2.5251      1.0000      0.8618  11232.3203      0.7711   5757.5762
   8996.5000      6.1589    169.2903     87.6871    103.0261      3.0000      7.2403      0.2457      0.0781      2.5211      1.0000      0.8535  11404.1914      0.7646   5907.0137
   8997.0000      6.0838    178.1594     90.0962    125.0820      3.0000      6.0091      0.2826      0.0999      2.4851      1.0000      0.7914  11099.2480      0.8075   5612.9521
   8997.5000      6.1570    175.7125     88.9239    151.4002      3.0000      4.9412      0.3059      0.1061      2.4749      1.0000      0.7769  11245.5674      0.8564   5691.1157
   8998.0000      6.1832    177.9299     89.5175    163.3074      3.0000      4.3752      0.3137      0.1108      2.4671      1.0000      0.7664  11171.0039      0.8654   5620.1924
   8998.5000      6.1020    176.6296     89.2781    164.2320      3.0000      4.1734      0.3154      0.1186      2.4543      1.0000      0.7500  11200.9541      0.8478   5661.5645
   8999.0000      6.0437    178.5031     89.7521    155.6954      3.0000      4.5118      0.3202      0.1197      2.4524      1.0000      0.7478  11141.7998      0.8584   5602.1440
   8999.5000      6.1073    184.2033     90.4040    169.1729      3.0000      4.6217      0.3535      0.1127      2.4641      1.0000      0.7626  11061.4551      0.9739   5428.7856
   9000.0000      6.1286    178.8280     88.8867    160.9218      3.0000      4.9214      0.3486      0.1092      2.4698      1.0000      0.7702  11250.2725      0.9698   5591.9639
   9000.5000      5.9918    181.2715     90.5499    119.7864      3.0000      6.6175      0.3148      0.1132      2.4633      1.0000      0.7616  11043.6318      0.8617   5516.5864
   9001.0000      5.8803    168.4101     87.0060     75.5445      3.0000      9.3524      0.2887      0.1042      2.4781      1.0000      0.7816  11493.4600      0.8129   5937.8862
   9001.5000      5.8284    174.9667     91.5972     53.4645      3.0000     11.9935      0.2580      0.1723      2.3656      1.0000      0.6569  10917.3701      0.5303   5715.3726
   9002.0000      5.7668    166.7289     90.2862     54.7457      2.0000     12.8803      0.2280      0.2000      2.3200      0.9168      0.7259  11075.8926      0.3656   5997.7588
   9002.5000      5.7226    155.0090     85.9573     76.4369      2.0000     12.2081      0.2190      0.1895      2.3373      0.9902      0.7524  11633.6807      0.3698   6451.2402
   9003.0000      5.7927    154.0712     84.9262     89.2611      3.0000     11.2589      0.2218      0.1625      2.3819      1.0000      0.8208  11774.9346      0.4551   6490.5044
   9003.5000      5.8568    151.4190     83.2722     87.6085      3.0000      9.9324      0.2279      0.1379      2.4224      1.0000      0.7140  12008.8076      0.5427   6604.1904
   9004.0000      5.9059    153.1800     83.1999    105.6867      3.0000      7.7222      0.2337      0.1102      2.4682      1.0000      0.7684  12019.2471      0.6385   6528.2686
   9004.5000      5.9814    157.6157     84.3300    121.3513      3.0000      6.3198      0.2458      0.1021      2.4816      1.0000      0.7870  11858.1738      0.6964   6344.5464
   9005.0000      6.0355    167.5705     86.5796    124.0923      3.0000      5.5778      0.2787      0.0874      2.5058      1.0000      0.8253  11550.0625      0.8321   5967.6372
   9005.5000      6.1210    177.7755     89.0135    137.2647      3.0000      5.0628      0.3060      0.0845      2.5106      1.0000      0.8339  11234.2510      0.9187   5625.0737
   9006.0000      6.1905    186.4114     91.0782    152.0396      3.0000      4.8935      0.3260      0.0870      2.5064      1.0000      0.8265  10979.5742      0.9686   5364.4790
   9006.5000      6.1531    186.5302     91.4260    149.6271      3.0000      5.2386      0.3207      0.0938      2.4952      1.0000      0.8077  10937.8027      0.9338   5361.0620
   9007.0000      6.0697    175.6742     88.8719    109.0996      3.0000      6.0389      0.3036      0.1023      2.4812      1.0000      0.7866  11252.1533      0.8610   5692.3560
   9007.5000      5.9139    169.8490     87.6900     55.4140      3.0000      7.5562      0.2822      0.1072      2.4731      1.0000      0.7753  11403.8037      0.7857   5887.5840
   9008.0000      5.7481    175.5817     90.0719     29.5875      3.0000     11.1168      0.2774      0.1253      2.4432      1.0000      0.7378  11102.2422      0.7201   5695.3555
   9008.5000      5.6333    175.1796     91.0742     19.1391      2.0000     23.6469      0.2714      0.1633      2.3806      0.8096      0.8209  10980.0635      0.5946   5708.4258
   9009.0000      5.5914    167.3616     90.1850     13.5438      2.0000     36.1219      0.2704      0.2299      2.2707      0.4751      0.6541  11088.3184      0.4015   5975.0869
   9009.5000      5.6139    165.9613     91.5034     16.6047      1.0000     42.4153      0.2545      0.2832      2.1827      0.3608      0.0776  10928.5605      0.2035   6025.5000
   9010.0000      5.6539    163.2370     91.0340     17.1299      1.0000     71.1057      0.2480      0.2975      2.1592      0.2646      0.0687  10984.9043      0.1443   6126.0615
   9010.5000      5.7025    161.4252     90.1789     12.9921      1.0000     52.0023      0.2463      0.2896      2.1721      0.3184      0.0736  11089.0713      0.1620   6194.8208
   9011.0000      5.7146    162.7360     90.5199     11.9616      1.0000     59.6421      0.2498      0.2871      2.1763      0.2992      0.0752  11047.2988      0.1793   6144.9224
   9011.5000      5.7209    162.7800     90.4587     14.9498      1.0000     53.5162      0.2575      0.2918      2.1686      0.3116      0.0723  11054.7725      0.1877   6143.2607
   9012.0000      5.7382    164.5279     91.2588     15.7647      1.0000     48.3297      0.2585      0.2981      2.1581      0.3219      0.0683  10957.8506      0.1726   6077.9980
   9012.5000      5.7514    162.4214     90.4818     15.9563      1.0000     38.3028      0.2577      0.2980      2.1582      0.3627      0.0684  11051.9473      0.1704   6156.8237
   9013.0000      5.7731    160.6240     89.7912     15.7583      1.0000     31.6814      0.2560      0.2961      2.1614      0.4022      0.0696  11136.9463      0.1709   6225.7197
   9013.5000      5.8215    163.2281     90.6650     14.5507      1.0000     29.9118      0.2531      0.2888      2.1734      0.4239      0.0742  11029.6191      0.1837   6126.3945
   9014.0000      5.8782    165.7276     91.6261     16.8200      1.0000     29.6383      0.2511      0.2876      2.1754      0.4276      0.0750  10913.9189      0.1813   6033.9980
   9014.5000      5.9348    165.1400     91.6517     18.4745      1.0000     29.3947      0.2467      0.2924      2.1676      0.4229      0.0720  10910.8750      0.1553   6055.4697
   9015.0000      6.0414    166.7505     92.1849     20.8761      1.0000     23.1613      0.2513      0.2944      2.1643      0.4749      0.0708  10847.7646      0.1627   5996.9824
   9015.5000      6.1373    167.8436     92.1369     23.1908      1.0000     19.0899      0.2607      0.2872      2.1761      0.5365      0.0754  10853.4199      0.2100   5957.9272
   9016.0000      6.1483    165.0727     90.9860     23.1839      1.0000     15.8766      0.2545      0.2763      2.1941      0.6111      0.0823  10990.7012      0.2236   6057.9365
   9016.5000      6.1000    159.3265     88.9346     28.2144      1.0000     14.5420      0.2365      0.2626      2.2167      0.6700      0.0911  11244.2178      0.2113   6276.4209
   9017.0000      6.0305    156.6886     87.4090     36.1925      2.0000     12.9466      0.2325      0.2375      2.2581      0.7802      0.6376  11440.4648      0.2713   6382.0859
   9017.5000      5.9788    156.8521     86.8534     38.1510      2.0000     12.1377      0.2336      0.2129      2.2988      0.8923      0.6981  11513.6533      0.3450   6375.4307
   9018.0000      5.9194    156.4114     86.4228     32.2492      2.0000     13.2691      0.2321      0.2000      2.3199      0.9027      0.7306  11571.0156      0.3772   6393.3950
   9018.5000      5.8944    158.1143     87.2647     26.8156      2.0000     14.3047      0.2331      0.2098      2.3038      0.8312      0.7060  11459.3848      0.3523   6324.5371
   9019.0000      5.9206    168.3480     91.1974     26.2953      2.0000     15.4946      0.2439      0.2287      2.2726      0.7367      0.6593  10965.2275      0.3292   5940.0771
   9019.5000      5.9820    173.6568     92.9204     26.0752      2.0000     16.6672      0.2690      0.2486      2.2399      0.6572      0.6119  10761.9023      0.3442   5758.4863
   9020.0000      6.0186    180.8054     95.6557     22.0987      2.0000     19.2143      0.2752      0.2649      2.2129      0.5761      0.5743  10454.1602      0.3152   5530.8076
   9020.5000      6.0101    180.1801     95.9648     21.1974      2.0000     18.8529      0.2743      0.2816      2.1854      0.5499      0.5376  10420.4912      0.2648   5550.0010
   9021.0000      5.9416    178.9150     95.9771     20.6673      1.0000     18.2041      0.2702      0.2926      2.1672      0.5403      0.0722  10419.1494      0.2218   5589.2471
   9021.5000      5.8974    177.1242     95.6413     17.4141      1.0000     19.1347      0.2650      0.2972      2.1596      0.5192      0.0693  10455.7295      0.1937   5645.7573
   9022.0000      5.9530    169.2883     93.3293     19.9311      1.0000     19.3324      0.2448      0.2950      2.1632      0.5199      0.0707  10714.7539      0.1421   5907.0820
   9022.5000      6.0534    156.2517     88.5682     23.4129      1.0000     18.5406      0.2102      0.2693      2.2057      0.5780      0.0871  11290.7373      0.1170   6399.9316
   9023.0000      6.1668    150.3846     85.3273     21.0018      2.0000     16.6546      0.1949      0.2158      2.2940      0.7492      0.6923  11719.5723      0.2260   6649.6157
   9023.5000      6.2540    151.3372     84.2292     20.3467      3.0000     13.4616      0.2085      0.1640      2.3794      1.0000      0.6725  11872.3682      0.4127   6607.7622
   9024.0000      6.2360    154.7763     84.8512     23.4879      3.0000     12.3964      0.2333      0.1590      2.3877      1.0000      0.6806  11785.3438      0.4979   6460.9385
   9024.5000      6.1925    151.6321     84.1805     30.3145      3.0000     10.7006      0.2440      0.1923      2.3327      1.0000      0.6291  11879.2344      0.4335   6594.9102
   9025.0000      6.1742    157.4233     87.1821     40.8676      2.0000      9.4453      0.2389      0.2230      2.2821      0.9721      0.6749  11470.2383      0.3313   6352.2988
   9025.5000      6.1768    164.0337     89.7349     59.4194      3.0000      7.4674      0.2247      0.2130      2.2985      1.0000      0.5986  11143.9395      0.3190   6096.3071
   9026.0000      6.2388    167.4812     88.9916     89.0890      3.0000      6.4402      0.2240      0.1347      2.4278      1.0000      0.7224  11237.0107      0.5408   5970.8179
   9026.5000      6.5137    162.8933     86.1651    129.4973      3.0000      6.1139      0.2437      0.1012      2.4830      1.0000      0.7913  11605.6279      0.6929   6138.9863
   9027.0000      6.9154    165.8961     86.1632    157.9233      3.0000      4.2524      0.2722      0.0863      2.5077      1.0000      0.8306  11605.8828      0.8171   6027.8682
   9027.5000      7.1158    169.0599     86.1613    172.0180      3.0000      3.3639      0.3293      0.0992      2.4863      1.0000      0.7962  11606.1426      0.9433   5915.0640
   9028.0000      7.2178    170.5211     86.1594    183.2683      3.0000      2.8220      0.3887      0.1012      2.4831      1.0000   -999.2500  11606.3984      1.0000   5864.3750
   9028.5000      7.0299    170.5139     86.1575    178.9147      3.0000      2.5200      0.4158      0.1012      2.4831      1.0000   -999.2500  11606.6533      1.0000   5864.6250
   9029.0000      6.7767    170.5066     86.1555    174.9161      3.0000      2.6112      0.3944      0.1012      2.4831      1.0000   -999.2500  11606.9131      1.0000   5864.8750
   9029.5000      6.9031    170.5066     86.1537    170.1731      3.0000      3.0257      0.3757      0.1012      2.4831      1.0000   -999.2500  11607.1650      1.0000   5864.8750
   9030.0000      7.0140    168.8361     86.1517    174.6328      3.0000      3.3539      0.3286      0.1011      2.4831      1.0000      0.7918  11607.4258      0.9356   5922.9048
   9030.5000      7.0224    170.3578     86.1499    180.4115      3.0000      3.3052      0.3493      0.1011      2.4831      1.0000      0.7918  11607.6807      0.9947   5869.9966
   9031.0000      6.9233    170.4848     86.1480    185.5626      3.0000      3.3321      0.3633      0.1011      2.4831      1.0000   -999.2500  11607.9365      1.0000   5865.6250
   9031.5000      6.8929    170.4739     86.1460    195.7549      3.0000      3.3914      0.3976      0.0932      2.4963      1.0000   -999.2500  11608.1963      1.0000   5866.0000
   9032.0000      6.6366    170.4703     86.1441    182.4363      3.0000      3.3471      0.4147      0.0842      2.5111      1.0000   -999.2500  11608.4521      1.0000   5866.1250
   9032.5000      6.3395    170.4630     86.1422    148.0178      3.0000      3.7029      0.3837      0.0883      2.5043      1.0000   -999.2500  11608.7080      1.0000   5866.3750
   9033.0000      6.1097    183.1696     90.2827     95.0817      3.0000      5.1479      0.3292      0.0952      2.4930      1.0000      0.8068  11076.3252      0.9543   5459.4214
   9033.5000      5.9533    172.4204     89.3341     53.2318      3.0000      7.5682      0.2647      0.1233      2.4465      1.0000      0.7446  11193.9277      0.6895   5799.7783
   9034.0000      5.9366    163.1722     88.0447     34.9842      3.0000      8.9155      0.2334      0.1664      2.3754      1.0000      0.6699  11357.8643      0.4771   6128.4951
   9034.5000      5.9204    158.7085     87.4875     38.3444      3.0000     10.0616      0.2194      0.1962      2.3262      1.0000      0.6244  11430.1992      0.3521   6300.8594
   9035.0000      5.9033    159.0023     87.7198     43.4032      2.0000     11.9362      0.2105      0.1924      2.3326      0.9881      0.7558  11399.9287      0.3376   6289.2183
   9035.5000      5.8938    158.5663     87.1999     41.6282      3.0000     13.4926      0.2049      0.1719      2.3664      1.0000      0.6616  11467.9072      0.3800   6306.5098
   9036.0000      5.8783    159.7948     87.3631     39.3023      3.0000     17.7721      0.2047      0.1597      2.3865      0.9568      0.6810  11446.4805      0.4143   6258.0239
   9036.5000      5.8444    159.9658     87.5904     33.3312      2.0000     18.4402      0.2127      0.1745      2.3620      0.8649      0.8026  11416.7764      0.3947   6251.3354
   9037.0000      5.8292    162.5602     89.0028     26.6467      2.0000     17.1707      0.2310      0.2117      2.3008      0.7507      0.7069  11235.6064      0.3408   6151.5684
   9037.5000      5.9231    174.9352     94.0444     26.6859      2.0000     18.4959      0.2464      0.2501      2.2373      0.6195      0.6120  10633.2803      0.2752   5716.4014
   9038.0000      6.0338    174.1455     94.3658     29.1532      1.0000     17.1224      0.2480      0.2727      2.2001      0.5951      0.0858  10597.0615      0.2152   5742.3247
   9038.5000      6.0518    177.7269     95.6299     28.4146      1.0000     19.3434      0.2514      0.2761      2.1945      0.5527      0.0836  10456.9775      0.2153   5626.6118
   9039.0000      6.0751    177.2222     95.2397     26.6134      1.0000     16.9373      0.2509      0.2683      2.2074      0.6075      0.0887  10499.8281      0.2360   5642.6328
   9039.5000      6.0343    171.6436     92.9682     28.4417      2.0000     14.2228      0.2490      0.2558      2.2279      0.6942      0.5990  10756.3682      0.2663   5826.0269
   9040.0000      6.0048    166.6692     91.1094     28.7291      2.0000     15.2501      0.2390      0.2433      2.2486      0.7016      0.6290  10975.8193      0.2735   5999.9102
   9040.5000      6.0286    164.1072     90.3633     30.0761      2.0000     12.5353      0.2186      0.2302      2.2701      0.8163      0.6611  11066.4375      0.2524   6093.5771
   9041.0000      6.0357    157.8156     87.9112     34.3314      2.0000     11.7443      0.2073      0.2154      2.2946      0.8977      0.6986  11375.1133      0.2627   6336.5078
   9041.5000      6.0497    156.6483     87.3180     38.7244      2.0000     11.6945      0.1979      0.1998      2.3204      0.9643      0.7389  11452.3936      0.2803   6383.7261
   9042.0000      6.0732    154.1854     86.2252     40.5365      3.0000     11.8070      0.1917      0.1872      2.3411      1.0000      0.6388  11597.5361      0.2984   6485.6968
   9042.5000      6.0610    151.2351     84.8875     48.0526      3.0000      9.9227      0.1895      0.1764      2.3590      1.0000      0.6555  11780.2979      0.3233   6612.2227
   9043.0000      6.0610    149.8488     83.6973     75.6871      3.0000      7.8335      0.2027      0.1600      2.3861      1.0000      0.6814  11947.8154      0.4079   6673.3936
   9043.5000      6.2031    151.5765     83.0773    104.2490      3.0000      6.9601      0.2223      0.1205      2.4512      1.0000      0.7515  12036.9805      0.5766   6597.3301
   9044.0000      6.3608    153.7870     82.6771    107.4129      3.0000      7.4869      0.2330      0.0745      2.5271      1.0000      0.8698  12095.2461      0.7387   6502.4995
   9044.5000      6.2061    156.0739     82.9129     87.3268      3.0000      9.3156      0.2312      0.0459      2.5742      1.0000      1.0173  12060.8516      0.8150   6407.2212
   9045.0000      5.9706    163.5559     85.7147     66.5302      3.0000     11.2546      0.2350      0.0630      2.5460      1.0000      0.9159  11666.6104      0.7771   6114.1182
   9045.5000      5.9013    157.9975     84.8616     47.0640      3.0000     14.8348      0.2383      0.1127      2.4641      1.0000      0.7677  11783.8945      0.6448   6329.2129
   9046.0000      5.8415    171.7682     91.0536     35.3808      3.0000     14.1642      0.2369      0.1712      2.3676      1.0000      0.6640  10982.5439      0.4734   5821.7979
   9046.5000      5.7988    169.6344     91.5120     38.2942      2.0000     13.5325      0.2273      0.2067      2.3089      0.8669      0.7226  10927.5342      0.3444   5895.0322
   9047.0000      5.8151    164.4147     89.9729     49.7720      2.0000     14.6366      0.2179      0.2101      2.3033      0.8203      0.7140  11114.4580      0.3079   6082.1821
   9047.5000      5.7926    155.6062     86.1653     64.9267      3.0000     11.5194      0.2068      0.1767      2.3585      1.0000      0.6556  11605.5977      0.3719   6426.4805
   9048.0000      5.8542    156.1727     85.6999     89.9791      3.0000      8.4670      0.1960      0.1366      2.4246      1.0000      0.7217  11668.6309      0.4555   6403.1685
   9048.5000      5.9838    161.6849     86.4437    116.7728      3.0000      5.6866      0.2203      0.1078      2.4721      1.0000      0.7785  11568.2197      0.6070   6184.8682
   9049.0000      6.2101    166.2485     86.0795    143.0468      3.0000      4.1843      0.2955      0.1008      2.4836      1.0000      0.7946  11617.1689      0.8418   6015.0918
   9049.5000      6.3189    168.0734     86.0776    156.2231      3.0000      3.7834      0.3149      0.0946      2.4939      1.0000      0.8100  11617.4248      0.9152   5949.7798
   9050.0000      6.2619    168.4564     86.0757    142.9318      3.0000      4.3666      0.2960      0.0704      2.5338      1.0000      0.8852  11617.6807      0.9302   5936.2529
   9050.5000      6.1453    166.0730     85.6861    119.2942      3.0000      6.3795      0.2572      0.0477      2.5713      1.0000      1.0041  11670.5029      0.8845   6021.4482
   9051.0000      5.9540    156.9096     83.3093     91.1525      3.0000      9.4540      0.2248      0.0449      2.5759      1.0000      1.0252  12003.4580      0.7997   6373.0977
   9051.5000      5.9096    156.8433     84.0873     74.1304      3.0000     11.5256      0.2102      0.0676      2.5384      1.0000      0.8963  11892.4033      0.6930   6375.7886
   9052.0000      5.9280    168.3959     88.1171     59.0872      3.0000     13.0364      0.2390      0.1015      2.4825      1.0000      0.7934  11348.5352      0.6786   5938.3867
   9052.5000      5.9211    171.6974     89.9004     36.5894      3.0000     19.2334      0.2565      0.1471      2.4073      0.9911      0.7040  11123.4229      0.5983   5824.1982
   9053.0000      5.8654    177.5468     93.2255     20.7567      2.0000     40.4101      0.2704      0.2132      2.2981      0.4807      0.7079  10726.6758      0.4489   5632.3184
   9053.5000      5.8326    174.5518     94.0382     15.3978      2.0000     50.0592      0.2656      0.2739      2.1981      0.3419      0.5597  10633.9736      0.2622   5728.9600
   9054.0000      5.8427    169.2529     93.2045     14.4517      1.0000    130.0610      0.2642      0.3106      2.1376      0.1866      0.0622  10729.0928      0.1534   5908.3169
   9054.5000      5.8655    162.5927     90.9405     13.3912      1.0000    118.1658      0.2623      0.3176      2.1260      0.1920      0.0577  10996.1963      0.1279   6150.3379
   9055.0000      5.8694    164.9357     91.9129     15.3284      1.0000     71.1936      0.2578      0.3159      2.1288      0.2502      0.0588  10879.8691      0.1196   6062.9683
   9055.5000      5.8618    164.1767     91.6999     14.8078      1.0000     69.3164      0.2530      0.3139      2.1320      0.2551      0.0601  10905.1367      0.1116   6090.9995
   9056.0000      5.8499    157.9942     89.3823     17.3131      1.0000     71.0007      0.2501      0.3142      2.1316      0.2518      0.0599  11187.8926      0.1028   6329.3462
   9056.5000      5.8300    158.6456     89.3601     27.0714      1.0000     40.0164      0.2520      0.3052      2.1465      0.3470      0.0657  11190.6738      0.1338   6303.3579
   9057.0000      5.8022    156.9819     87.8442     51.1994      1.0000     17.2377      0.2479      0.2662      2.2107      0.6063      0.0910  11383.7891      0.2334   6370.1602
   9057.5000      5.8264    158.4665     86.8594     88.4197      3.0000     10.8464      0.2431      0.1973      2.3245      1.0000      0.7512  11512.8604      0.4165   6310.4834
   9058.0000      5.8605    149.8693     82.1458    108.2418      3.0000      7.6415      0.2413      0.1249      2.4439      1.0000      0.7446  12173.4775      0.6182   6672.4795
   9058.5000      5.8886    141.4782     78.2467    118.2662      3.0000      7.9462      0.2373      0.0815      2.5156      1.0000      0.8479  12780.0840      0.7310   7068.2251
   9059.0000      5.9078    141.9313     78.2864    119.3248      3.0000      7.9443      0.2332      0.0702      2.5341      1.0000      0.8866  12773.6084      0.7513   7045.6631
   9059.5000      5.9110    143.4500     78.9320    113.9572      3.0000      7.7277      0.2304      0.0716      2.5319      1.0000      0.8815  12669.1367      0.7394   6971.0693
   9060.0000      5.9085    143.9327     79.3584    108.3666      3.0000      7.9632      0.2230      0.0771      2.5228      1.0000      0.8621  12601.0684      0.7026   6947.6904
   9060.5000      5.9700    145.4728     79.9519     87.8369      3.0000      9.0856      0.2223      0.0774      2.5223      1.0000      0.8612  12507.5195      0.6997   6874.1362
   9061.0000      6.0478    148.4171     81.1968     72.2866      3.0000     10.6745      0.2162      0.0794      2.5190      1.0000      0.8546  12315.7598      0.6764   6737.7666
   9061.5000      6.0480    157.3805     84.5175     61.8624      3.0000     11.0939      0.2196      0.0881      2.5046      1.0000      0.8286  11831.8691      0.6614   6354.0283
   9062.0000      5.9872    164.6183     87.3622     51.7092      3.0000     11.2471      0.2330      0.1168      2.4573      1.0000      0.7611  11446.6025      0.6178   6074.6592
   9062.5000      5.9236    167.9090     89.0879     40.7332      3.0000     12.0367      0.2534      0.1621      2.3825      1.0000      0.6805  11224.8691      0.5465   5955.6084
   9063.0000      5.8926    169.0841     90.3994     31.4778      2.0000     13.0743      0.2612      0.2057      2.3106      0.8864      0.7310  11062.0146      0.4443   5914.2183
   9063.5000      5.8693    170.9753     92.3015     28.5077      2.0000     16.7313      0.2485      0.2397      2.2545      0.6782      0.6437  10834.0557      0.3109   5848.7974
   9064.0000      5.8795    166.9490     91.7724     33.1788      1.0000     24.0831      0.2319      0.2571      2.2258      0.5275      0.0975  10896.5273      0.2137   5989.8525
   9064.5000      5.8923    158.4727     88.9505     42.9200      1.0000     20.7461      0.2181      0.2578      2.2247      0.5680      0.0971  11242.2061      0.1723   6310.2339
   9065.0000      5.9032    151.9363     85.8474     51.6550      2.0000     15.9734      0.2176      0.2344      2.2632      0.7089      0.6574  11648.5703      0.2375   6581.7036
   9065.5000      5.8871    150.1102     84.2013     57.3994      2.0000     13.6104      0.2241      0.1997      2.3205      0.8923      0.7478  11876.3008      0.3554   6661.7715
   9066.0000      5.8988    142.0409     80.5608     66.6490      3.0000     12.9457      0.2166      0.1696      2.3702      1.0000      0.6691  12412.9912      0.4199   7040.2266
   9066.5000      5.9813    144.6563     81.0931     74.7999      3.0000     12.0697      0.2188      0.1472      2.4072      1.0000      0.7058  12331.5039      0.4903   6912.9375
   9067.0000      6.0499    150.6874     82.2731     86.7716      3.0000     10.5433      0.2331      0.1084      2.4711      1.0000      0.7795  12154.6475      0.6419   6636.2529
   9067.5000      6.0818    152.8476     82.5020     93.6057      3.0000      7.7774      0.2518      0.1007      2.4839      1.0000      0.7972  12120.9209      0.7174   6542.4629
   9068.0000      6.0899    159.4127     84.2404     99.8946      3.0000      5.8889      0.2660      0.0898      2.5018      1.0000      0.8248  11870.7930      0.7890   6273.0259
   9068.5000      6.0812    158.1405     83.6211     92.4509      3.0000      5.7877      0.2793      0.0944      2.4942      1.0000      0.8126  11958.7090      0.8139   6323.4897
   9069.0000      6.0596    162.4685     85.4391     76.8599      3.0000      7.6602      0.2778      0.1096      2.4691      1.0000      0.7771  11704.2461      0.7663   6155.0405
   9069.5000      6.0339    156.5559     84.5514     76.7307      3.0000      8.9693      0.2299      0.1132      2.4633      1.0000      0.7697  11827.1260      0.6192   6387.4966
   9070.0000      6.0002    150.4533     82.7181     75.3449      3.0000     10.3445      0.2192      0.1200      2.4520      1.0000      0.7558  12089.2510      0.5692   6646.5806
   9070.5000      5.9299    149.5399     82.0908     68.7315      3.0000     10.1521      0.2350      0.1219      2.4489      1.0000      0.7522  12181.6367      0.6090   6687.1777
   9071.0000      5.9614    150.5685     81.9327     86.5423      3.0000      9.2389      0.2490      0.1099      2.4687      1.0000      0.7768  12205.1318      0.6831   6641.4937
   9071.5000      6.0385    159.2549     84.3686     95.2932      3.0000      9.7240      0.2613      0.0935      2.4957      1.0000      0.8153  11852.7461      0.7650   6279.2437
   9072.0000      6.0341    158.7943     83.8045     73.1945      3.0000     12.6179      0.2683      0.0816      2.5153      1.0000      0.8488  11932.5371      0.8190   6297.4561
   9072.5000      5.9469    155.3506     83.6561     45.3636      3.0000     19.6347      0.2539      0.1156      2.4592      1.0000      0.7649  11953.7031      0.6808   6437.0518
   9073.0000      5.8448    148.5776     83.3649     36.9675      2.0000     15.8276      0.2179      0.1824      2.3491      0.8982      0.7972  11995.4502      0.3872   6730.4912
   9073.5000      5.8586    144.5804     82.6160     54.8746      2.0000     12.5442      0.2117      0.2151      2.2951      0.8689      0.7101  12104.1865      0.2759   6916.5654
   9074.0000      5.9723    144.0455     81.7936     87.7296      3.0000      9.1186      0.2133      0.1877      2.3403      1.0000      0.7834  12225.8984      0.3588   6942.2510
   9074.5000      6.0513    147.4640     81.3439     98.4720      3.0000      6.9648      0.2249      0.1129      2.4637      1.0000      0.7709  12293.4893      0.6057   6781.3184
   9075.0000      6.0484    156.4602     83.7114    110.3187      3.0000      5.5394      0.2392      0.0854      2.5090      1.0000      0.8377  11945.8096      0.7251   6391.4009
   9075.5000      5.9755    166.1835     85.6852    129.7776      3.0000      4.4635      0.2778      0.0667      2.5400      1.0000      0.9019  11670.6318      0.8890   6017.4453
   9076.0000      5.9013    184.7404     90.3251    133.1278      3.0000      3.7184      0.3271      0.0756      2.5252      1.0000   -999.2500  11071.1143      1.0000   5413.0000
   9076.5000      5.8708    190.8397     92.0246    131.7746      3.0000      3.3209      0.3626      0.0803      2.5175      1.0000   -999.2500  10866.6582      1.0000   5240.0000
   9077.0000      5.8758    202.4548     95.1228    129.6707      3.0000      3.0684      0.3602      0.0865      2.5072      1.0000   -999.2500  10512.7295      1.0000   4939.3750
   9077.5000      5.8970    202.4189     95.1123    136.6596      3.0000      3.0634      0.3357      0.0734      2.5289      1.0000   -999.2500  10513.8838      1.0000   4940.2500
   9078.0000      5.8968    197.4919     93.8194    149.7411      3.0000      3.2678      0.3318      0.0732      2.5292      1.0000   -999.2500  10658.7803      1.0000   5063.5000
   9078.5000      5.9074    191.8925     92.3108    149.1968      3.0000      3.5064      0.3283      0.0723      2.5307      1.0000   -999.2500  10832.9639      1.0000   5211.2500
   9079.0000      5.9948    189.6292     91.8894    137.8330      3.0000      3.7207      0.3208      0.0784      2.5207      1.0000      0.8598  10882.6475      0.9785   5273.4497
   9079.5000      5.9607    183.3336     90.8030    117.7979      3.0000      4.2960      0.2952      0.0799      2.5182      1.0000      0.8549  11012.8564      0.9009   5454.5376
   9080.0000      5.8926    176.1282     89.5641     91.3289      3.0000      5.5999      0.2668      0.0878      2.5051      1.0000      0.8316  11165.1914      0.7971   5677.6821
   9080.5000      5.8958    163.1223     86.2504     62.6180      3.0000      8.5989      0.2409      0.0988      2.4870      1.0000      0.8033  11594.1455      0.6918   6130.3716
   9081.0000      5.8555    162.5403     86.8123     42.6938      3.0000     12.0362      0.2388      0.1295      2.4363      1.0000      0.7391  11519.1074      0.5980   6152.3203
   9081.5000      5.9659    168.0031     89.1758     35.9397      3.0000     14.9302      0.2540      0.1649      2.3778      1.0000      0.6787  11213.8057      0.5402   5952.2715
   9082.0000      6.2009    167.9459     89.6115     30.9581      2.0000     17.0413      0.2705      0.1995      2.3208      0.7958      0.7550  11159.2803      0.4885   5954.2998
   9082.5000      6.2676    170.4349     91.0658     27.1950      2.0000     18.3688      0.2721      0.2242      2.2801      0.6878      0.6895  10981.0723      0.4226   5867.3438
   9083.0000      6.1649    170.5501     91.8056     26.4474      2.0000     19.0545      0.2608      0.2392      2.2553      0.6357      0.6507  10892.5850      0.3474   5863.3809
   9083.5000      6.1227    171.3055     92.7214     25.3268      2.0000     21.5037      0.2504      0.2526      2.2333      0.5683      0.6171  10784.9922      0.2794   5837.5259
   9084.0000      6.1472    173.2359     93.5951     22.6240      2.0000     18.8974      0.2473      0.2563      2.2271      0.5990      0.6079  10684.3164      0.2601   5772.4756
   9084.5000      6.1938    172.2058     93.1450     18.5425      2.0000     17.3349      0.2441      0.2501      2.2374      0.6405      0.6236  10735.9502      0.2688   5807.0039
   9085.0000      6.2189    167.6930     91.4789     19.5189      2.0000     17.0355      0.2445      0.2487      2.2397      0.6496      0.6272  10931.4785      0.2737   5963.2769
   9085.5000      6.1496    175.0771     94.1167     21.4495      2.0000     18.0417      0.2453      0.2498      2.2379      0.6282      0.6246  10625.1074      0.2729   5711.7686
   9086.0000      6.0044    175.7725     94.6978     18.1357      1.0000     25.6733      0.2460      0.2623      2.2173      0.5011      0.0955  10559.9121      0.2393   5689.1729
   9086.5000      5.9153    172.0430     93.7817     13.4058      1.0000     38.8769      0.2459      0.2766      2.1937      0.3857      0.0860  10663.0635      0.1982   5812.5015
   9087.0000      5.8865    174.4367     95.1718     13.5000      1.0000     41.1570      0.2451      0.2939      2.1650      0.3541      0.0745  10507.3193      0.1462   5732.7383
   9087.5000      5.9450    174.0787     95.4440     22.1960      1.0000     23.1449      0.2289      0.2914      2.1692      0.4796      0.0762  10477.3525      0.1073   5744.5293
   9088.0000      6.0289    170.6637     93.6064     40.0092      1.0000      9.9408      0.2243      0.2664      2.2104      0.8035      0.0929  10683.0254      0.1653   5859.4785
   9088.5000      6.0686    175.0301     93.3677     65.4948      3.0000      5.5952      0.2474      0.2259      2.2772      1.0000      0.5872  10710.3447      0.3470   5713.3032
   9089.0000      6.1642    177.8235     90.6562     81.8168      3.0000      3.8771      0.2916      0.1350      2.4272      1.0000      0.7303  11030.6826      0.7332   5623.5552
   9089.5000      6.3568    172.1602     89.5399     75.9922      3.0000      3.5598      0.2761      0.1463      2.4086      1.0000      0.7106  11168.2012      0.6564   5808.5449
   9090.0000      6.3615    162.9902     86.2365     53.8177      3.0000      5.1016      0.2438      0.1030      2.4801      1.0000      0.7948  11596.0166      0.6880   6135.3398
   9090.5000      6.3007    156.9959     85.0297     44.0982      3.0000      7.1440      0.2187      0.1165      2.4578      1.0000      0.7657  11760.5957      0.5778   6369.5918
   9091.0000      6.1706    151.4865     82.9381     40.8319      3.0000      8.6992      0.2132      0.1063      2.4746      1.0000      0.7873  12057.1836      0.5910   6601.2500
   9091.5000      6.0180    149.0042     82.0671     41.7191      3.0000      8.7206      0.2108      0.1061      2.4749      1.0000      0.7879  12185.1523      0.5848   6711.2227
   9092.0000      5.9981    148.1269     82.2384     38.5028      3.0000      9.6009      0.2072      0.1266      2.4411      1.0000      0.7463  12159.7764      0.5160   6750.9668
   9092.5000      5.9914    152.1406     84.0808     36.6148      3.0000     12.2439      0.2142      0.1492      2.4038      1.0000      0.7062  11893.3184      0.4714   6572.8682
   9093.0000      5.9787    153.0371     84.6427     38.9153      3.0000     14.2363      0.2173      0.1626      2.3817      1.0000      0.6843  11814.3633      0.4421   6534.3613
   9093.5000      5.9142    160.0640     87.3123     40.0801      2.0000     18.3520      0.2335      0.1823      2.3493      0.8330      0.8071  11453.1426      0.4321   6247.5010
   9094.0000      5.9216    161.8251     88.8937     35.2452      2.0000     27.6600      0.2356      0.2227      2.2826      0.5611      0.6977  11249.3926      0.3226   6179.5107
   9094.5000      6.0255    168.8501     92.3192     33.7765      1.0000     27.3183      0.2476      0.2673      2.2090      0.4770      0.0928  10831.9795      0.2294   5922.4141
   9095.0000      6.0632    160.7715     89.6788     40.3308      1.0000     35.7245      0.2471      0.2807      2.1868      0.3973      0.0837  11150.9131      0.1897   6220.0078
   9095.5000      5.9895    155.1557     87.4741     50.1394      1.0000     34.1967      0.2391      0.2713      2.2023      0.4193      0.0901  11431.9492      0.1937   6445.1406
   9096.0000      5.9149    150.8756     85.5218     67.3408      2.0000     26.0641      0.2284      0.2493      2.2387      0.5211      0.6288  11692.9219      0.2260   6627.9766
   9096.5000      5.9814    148.3639     84.0960     80.3357      2.0000     15.4989      0.2245      0.2263      2.2765      0.7437      0.6888  11891.1738      0.2805   6740.1836
   9097.0000      6.3173    141.4278     80.7129     82.0128      3.0000     10.0771      0.2348      0.2077      2.3073      1.0000      0.7392  12389.5967      0.3631   7070.7437
   9097.5000      6.9598    141.9247     79.3690     76.1164      3.0000      8.2389      0.2844      0.1789      2.3549      1.0000      0.8183  12599.3779      0.5872   7045.9883
   9098.0000      7.3972    144.2157     79.5016     76.1102      3.0000      7.8904      0.2953      0.1513      2.4003      1.0000      0.7035  12578.3584      0.6970   6934.0557
   9098.5000      7.2199    143.9514     79.0719     73.9323      3.0000      7.5993      0.2962      0.1349      2.4275      1.0000      0.7321  12646.7139      0.7466   6946.7891
   9099.0000      7.2609    144.2888     79.2506     63.8597      3.0000      7.2839      0.2852      0.1267      2.4409      1.0000      0.7471  12618.2041      0.7385   6930.5454
   9099.5000      7.5210    143.3814     78.9743     60.9001      3.0000      7.1255      0.2785      0.1233      2.4466      1.0000      0.7537  12662.3438      0.7292   6974.4043
   9100.0000      7.3031    143.3741     78.9876     65.5380      3.0000      6.9537      0.2801      0.1257      2.4427      1.0000      0.7493  12660.2109      0.7269   6974.7607
   9100.5000      6.8174    143.6444     79.3190     66.0193      3.0000      6.8203      0.2808      0.1386      2.4214      1.0000      0.7258  12607.3174      0.6922   6961.6338
   9101.0000      6.4543    141.8133     78.7101     60.6929      3.0000      6.6612      0.2735      0.1356      2.4263      1.0000      0.7312  12704.8555      0.6798   7051.5264
   9101.5000      6.5007    139.4511     78.2959     55.1296      3.0000      6.9315      0.2505      0.1391      2.4205      1.0000      0.7250  12772.0586      0.6042   7170.9717
   9102.0000      6.5675    133.4158     76.0077     46.5534      3.0000      7.6768      0.2330      0.1279      2.4390      1.0000      0.7454  13156.5664      0.5861   7495.3643
   9102.5000      6.3312    129.1456     74.5338     45.5178      3.0000      9.2801      0.2190      0.1305      2.4346      1.0000      0.7405  13416.7266      0.5386   7743.1982
   9103.0000      6.1466    122.4657     71.6106     47.5985      3.0000     11.8564      0.2044      0.1119      2.4653      1.0000      0.7771  13964.4141      0.5499   8165.5532
   9103.5000      6.1425    120.8045     70.6813     53.3439      3.0000     13.9223      0.2002      0.0950      2.4933      1.0000      0.8157  14148.0215      0.5864   8277.8389
   9104.0000      6.1360    118.5195     69.5158     54.4663      3.0000     15.1033      0.1955      0.0803      2.5176      1.0000      0.8564  14385.2217      0.6149   8437.4316
   9104.5000      6.1628    118.9722     69.8731     48.3072      3.0000     16.7483      0.1829      0.0778      2.5217      1.0000      0.8644  14311.6611      0.5860   8405.3281
   9105.0000      6.1310    120.1361     70.6151     40.1273      3.0000     19.4257      0.1663      0.0757      2.5251      1.0000      0.8712  14161.2812      0.5447   8323.8945
   9105.5000      6.0502    121.9913     71.6167     33.2518      3.0000     25.4408      0.1563      0.0772      2.5225      1.0000      0.8661  13963.2178      0.5115   8197.3076
   9106.0000      6.0551    121.5287     71.6747     28.7504      3.0000     26.1572      0.1493      0.0868      2.5068      1.0000      0.8376  13951.9160      0.4643   8228.5117
   9106.5000      6.0900    121.5234     71.8974     30.0043      3.0000     29.0913      0.1454      0.0970      2.4900      1.0000      0.8111  13908.7178      0.4240   8228.8711
   9107.0000      6.1101    120.8182     71.7446     34.2202      3.0000     38.5657      0.1455      0.1073      2.4730      0.9282      0.7875  13938.3350      0.3948   8276.9014
   9107.5000      6.1484    118.3606     70.6976     39.6336      3.0000     29.6025      0.1396      0.1056      2.4758      1.0000      0.7914  14144.7480      0.3829   8448.7559
   9108.0000      6.1682    120.3669     71.5221     40.6738      3.0000     30.4548      0.1417      0.1022      2.4813      1.0000      0.7990  13981.6963      0.3984   8307.9307
   9108.5000      6.1620    120.6682     71.4215     38.2910      3.0000     27.4815      0.1511      0.0968      2.4903      1.0000      0.8119  14001.3848      0.4410   8287.1875
   9109.0000      6.0566    124.1664     72.8665     33.4148      3.0000     25.6573      0.1606      0.1000      2.4851      1.0000      0.8044  13723.7305      0.4589   8053.7080
   9109.5000      5.9338    128.5965     74.8589     28.8566      3.0000     35.9727      0.1692      0.1133      2.4630      0.9146      0.7751  13358.4629      0.4453   7776.2637
   9110.0000      5.9019    131.8934     76.4491     25.4634      3.0000     27.7726      0.1752      0.1304      2.4348      0.9172      0.7420  13080.5938      0.4137   7581.8828
   9110.5000      5.9118    135.2199     78.0481     27.1225      3.0000     20.5227      0.1796      0.1462      2.4087      0.9639      0.7142  12812.6104      0.3812   7395.3589
   9111.0000      5.9658    134.5239     77.7626     30.3268      3.0000     16.1296      0.1813      0.1481      2.4056      1.0000      0.7111  12859.6602      0.3805   7433.6235
   9111.5000      6.0972    133.2392     77.1440     32.8415      3.0000     16.9479      0.1804      0.1428      2.4143      1.0000      0.7202  12962.7637      0.3931   7505.3008
   9112.0000      6.2316    130.5380     75.8174     37.6625      3.0000     18.3243      0.1741      0.1260      2.4421      1.0000      0.7506  13189.5791      0.4233   7660.6040
   9112.5000      6.3140    129.7456     75.0701     47.5425      3.0000     17.3031      0.1730      0.1011      2.4832      1.0000      0.8024  13320.8760      0.4911   7707.3896
   9113.0000      6.4409    125.7879     72.6837     59.4904      3.0000     15.8270      0.1917      0.0771      2.5228      1.0000      0.8674  13758.2402      0.6132   7949.8887
   9113.5000      6.6568    122.8365     70.9473     68.5932      3.0000     14.3810      0.2045      0.0600      2.5510      1.0000      0.9339  14094.9727      0.6986   8140.9033
   9114.0000      6.7606    122.4684     70.6996     64.6764      3.0000     14.7110      0.2008      0.0506      2.5666      1.0000      0.9849  14144.3467      0.7150   8165.3691
   9114.5000      6.6664    122.6835     70.8322     52.8537      3.0000     15.7628      0.1908      0.0431      2.5788      1.0000      1.0380  14117.8672      0.7076   8151.0547
   9115.0000      6.5654    121.8483     70.4594     48.0311      3.0000     16.4375      0.1842      0.0356      2.5912      1.0000      1.1114  14192.5791      0.7102   8206.9277
   9115.5000      6.4949    119.3558     69.4292     45.7310      3.0000     16.4427      0.1777      0.0327      2.5961      1.0000      1.1486  14403.1592      0.7000   8378.3145
   9116.0000      6.4381    120.5931     70.0939     42.8943      3.0000     16.3652      0.1709      0.0338      2.5942      1.0000      1.1339  14266.5820      0.6775   8292.3486
   9116.5000      6.5016    120.9107     70.1071     41.9189      3.0000     16.2936      0.1845      0.0394      2.5851      1.0000      1.0718  14263.8838      0.7005   8270.5664
   9117.0000      6.4772    120.9924     70.0788     40.8088      3.0000     15.9646      0.1879      0.0386      2.5863      1.0000      1.0789  14269.6611      0.7122   8264.9844
   9117.5000      6.2665    120.4232     69.8012     43.7727      3.0000     15.6974      0.1871      0.0359      2.5908      1.0000      1.1084  14326.4092      0.7178   8304.0488
   9118.0000      6.1786    125.6923     72.0367     47.9563      3.0000     15.6665      0.1875      0.0354      2.5916      1.0000      1.1140  13881.8164      0.7204   7955.9390
   9118.5000      6.2121    120.7120     69.9365     53.5748      3.0000     15.9148      0.1934      0.0428      2.5794      1.0000      1.0409  14298.6777      0.7159   8284.1797
   9119.0000      6.1635    123.9726     71.3030     56.3787      3.0000     15.8483      0.2027      0.0500      2.5676      1.0000      0.9888  14024.6592      0.7220   8066.3008
   9119.5000      6.0778    123.8669     71.5060     49.0964      3.0000     16.0851      0.1973      0.0602      2.5506      1.0000      0.9332  13984.8467      0.6773   8073.1826
   9120.0000      6.0203    130.3717     74.6912     37.8828      3.0000     16.5963      0.1832      0.0740      2.5278      1.0000      0.8784  13388.4590      0.5977   7670.3760
   9120.5000      5.9607    130.7402     75.2041     32.9211      3.0000     18.1335      0.1821      0.0939      2.4951      1.0000      0.8208  13297.1523      0.5378   7648.7588
   9121.0000      5.9486    130.9106     75.6264     29.4310      3.0000     18.5242      0.1824      0.1144      2.4612      1.0000      0.7748  13222.8896      0.4800   7638.7998
   9121.5000      5.9889    131.3945     76.1443     29.0534      3.0000     17.9931      0.1853      0.1352      2.4270      1.0000      0.7354  13132.9619      0.4289   7610.6699
   9122.0000      6.0324    132.5394     76.8239     31.0993      3.0000     19.7771      0.1810      0.1419      2.4158      1.0000      0.7236  13016.7910      0.3973   7544.9258
   9122.5000      6.0202    134.7883     77.5754     32.3552      3.0000     18.7210      0.1786      0.1293      2.4366      1.0000      0.7462  12890.6855      0.4264   7419.0400
   9123.0000      6.0210    130.9890     75.9221     33.9948      3.0000     19.2177      0.1703      0.1173      2.4564      1.0000      0.7692  13171.3965      0.4372   7634.2310
   9123.5000      6.0190    128.6113     74.7254     33.4130      3.0000     18.6234      0.1723      0.1083      2.4713      1.0000      0.7880  13382.3340      0.4685   7775.3687
   9124.0000      6.0355    127.8844     74.0614     41.9885      3.0000     16.4297      0.1818      0.0969      2.4902      1.0000      0.8140  13502.3076      0.5285   7819.5625
   9124.5000      6.2249    131.9171     75.0211     49.8487      3.0000     14.3432      0.2034      0.0765      2.5237      1.0000      0.8705  13329.5879      0.6482   7580.5186
   9125.0000      6.4912    131.7271     74.1706     59.1777      3.0000     12.0523      0.2391      0.0667      2.5399      1.0000      0.9057  13482.4297      0.7783   7591.4526
   9125.5000      6.6887    131.9373     73.9062     63.7814      3.0000     11.4701      0.2655      0.0722      2.5308      1.0000      0.8852  13530.6572      0.8378   7579.3594
   9126.0000      6.7588    138.3612     76.4080     70.4399      3.0000     11.0229      0.2833      0.0910      2.4999      1.0000      0.8291  13087.6367      0.8353   7227.4590
   9126.5000      6.7590    134.8193     75.3599     73.6657      3.0000     10.8096      0.2847      0.1104      2.4678      1.0000      0.7840  13269.6631      0.7837   7417.3374
   9127.0000      6.7524    137.7457     76.7376     69.6553      3.0000     10.7507      0.2741      0.1135      2.4627      1.0000      0.7777  13031.4287      0.7445   7259.7549
   9127.5000      6.8876    136.8777     76.5435     69.4310      3.0000     11.3444      0.2621      0.1095      2.4693      1.0000      0.7861  13064.4609      0.7217   7305.7910
   9128.0000      6.9618    140.1223     77.8190     69.0337      3.0000     11.5118      0.2526      0.1014      2.4828      1.0000      0.8041  12850.3301      0.7177   7136.6201
   9128.5000      6.9265    137.1968     77.1365     67.7103      3.0000     11.4893      0.2326      0.1061      2.4749      1.0000      0.7935  12964.0332      0.6471   7288.7988
   9129.0000      6.7643    134.8519     76.6853     65.6443      3.0000     12.4696      0.1992      0.0994      2.4859      1.0000      0.8087  13040.3135      0.5706   7415.5439
   9129.5000      6.3164    132.2577     75.6338     52.3828      3.0000     13.8953      0.1768      0.0773      2.5225      1.0000      0.8687  13221.5957      0.5701   7560.9971
   9130.0000      5.9587    129.3247     74.5584     40.5672      3.0000     15.9347      0.1640      0.0725      2.5304      1.0000      0.8848  13412.3115      0.5471   7732.4741
   9130.5000      5.7308    126.4705     73.6515     34.2539      3.0000     18.0778      0.1580      0.0845      2.5105      1.0000      0.8472  13577.4492      0.4957   7906.9814
   9131.0000      5.7116    124.3151     73.1403     30.3231      3.0000     20.8663      0.1547      0.1068      2.4738      1.0000      0.7925  13672.3555      0.4225   8044.0781
   9131.5000      5.8467    126.6628     74.3174     28.6131      3.0000     24.2706      0.1557      0.1169      2.4571      1.0000      0.7716  13455.7930      0.3965   7894.9746
   9132.0000      5.9365    127.4833     74.6616     25.6784      3.0000     28.8726      0.1635      0.1241      2.4453      0.9416      0.7577  13393.7646      0.3984   7844.1641
   9132.5000      5.9728    130.5454     76.2373     25.2973      3.0000     32.8680      0.1633      0.1387      2.4212      0.7950      0.7312  13116.9404      0.3559   7660.1699
   9133.0000      5.9488    131.4863     76.7242     29.4920      3.0000     33.3684      0.1676      0.1477      2.4062      0.7441      0.7157  13033.7041      0.3424   7605.3535
   9133.5000      5.8907    130.8815     76.4598     30.8718      3.0000     34.3983      0.1657      0.1455      2.4100      0.7431      0.7196  13078.7617      0.3434   7640.4980
   9134.0000      5.8898    129.4117     75.6438     30.9205      3.0000     34.6424      0.1674      0.1367      2.4244      0.7841      0.7349  13219.8467      0.3734   7727.2788
   9134.5000      5.9091    128.5903     75.3606     30.6764      3.0000     34.3233      0.1617      0.1351      2.4271      0.7966      0.7379  13269.5371      0.3618   7776.6338
   9135.0000      5.9312    127.2549     74.7896     28.7439      3.0000     34.1166      0.1631      0.1369      2.4240      0.7891      0.7347  13370.8379      0.3604   7858.2451
   9135.5000      6.0064    125.9882     74.2694     27.6487      3.0000     31.9936      0.1582      0.1339      2.4290      0.8324      0.7402  13464.4980      0.3549   7937.2490
   9136.0000      6.0882    121.3084     72.0715     29.2676      3.0000     29.7227      0.1519      0.1204      2.4514      0.9540      0.7656  13875.1006      0.3758   8243.4551
   9136.5000      6.1241    120.4450     71.4747     32.8989      3.0000     27.0579      0.1433      0.0987      2.4872      1.0000      0.8117  13990.9678      0.4133   8302.5479
   9137.0000      6.1401    119.2106     70.6494     37.1058      3.0000     25.9501      0.1427      0.0808      2.5166      1.0000      0.8588  14154.4102      0.4624   8388.5137
   9137.5000      6.1508    118.4189     70.1616     35.6150      3.0000     25.2199      0.1435      0.0732      2.5292      1.0000      0.8831  14252.8018      0.4865   8444.5986
   9138.0000      6.1449    117.9192     69.9546     34.4727      3.0000     27.9524      0.1425      0.0734      2.5289      1.0000      0.8826  14294.9873      0.4831   8480.3828
   9138.5000      6.1215    114.2087     68.3520     35.6097      3.0000     28.9117      0.1399      0.0774      2.5222      1.0000      0.8694  14630.1523      0.4643   8755.8975
   9139.0000      6.0995    112.5815     67.6636     36.4047      3.0000     27.8513      0.1361      0.0785      2.5204      1.0000      0.8660  14778.9951      0.4503   8882.4531
   9139.5000      6.0895    109.6089     66.2169     36.8697      3.0000     28.4042      0.1361      0.0761      2.5245      1.0000      0.8738  15101.8857      0.4573   9123.3438
   9140.0000      6.0830    108.1861     65.3532     39.4336      3.0000     29.5933      0.1366      0.0642      2.5440      1.0000      0.9172  15301.4600      0.4926   9243.3311
   9140.5000      6.0329    112.8200     67.4183     38.0701      3.0000     30.6281      0.1376      0.0558      2.5579      1.0000      0.9561  14832.7754      0.5194   8863.6738
   9141.0000      5.9242    113.9704     67.9394     37.8724      3.0000     24.7930      0.1390      0.0562      2.5572      1.0000      0.9538  14719.0059      0.5221   8774.2109
   9141.5000      5.8249    122.3001     71.9596     34.0919      3.0000     26.9030      0.1441      0.0781      2.5212      1.0000      0.8678  13896.6816      0.4744   8176.6079
   9142.0000      5.7686    123.6007     72.9526     27.3571      3.0000     33.2756      0.1520      0.1118      2.4655      0.9636      0.7838  13707.5391      0.4005   8090.5703
   9142.5000      5.7894    121.5762     72.5616     25.4554      3.0000     31.0380      0.1501      0.1414      2.4166      0.8040      0.7283  13781.3896      0.3103   8225.2910
   9143.0000      5.8629    122.1214     72.9618     29.3392      3.0000     27.9640      0.1489      0.1497      2.4030      0.8048      0.7144  13705.8027      0.2834   8188.5732
   9143.5000      5.8898    122.3637     72.7708     34.4960      3.0000     26.9528      0.1490      0.1315      2.4330      0.9245      0.7462  13741.7734      0.3359   8172.3589
   9144.0000      5.8777    123.6867     72.9766     29.8850      3.0000     27.6902      0.1529      0.1119      2.4654      1.0000      0.7841  13703.0186      0.4029   8084.9443
   9144.5000      5.8423    123.3596     72.6977     24.3514      3.0000     33.8662      0.1586      0.1093      2.4697      0.9754      0.7895  13755.5889      0.4265   8106.3813
   9145.0000      5.7904    126.4478     74.3812     23.8928      3.0000     43.7627      0.1551      0.1257      2.4426      0.7518      0.7572  13444.2588      0.3699   7908.4048
   9145.5000      5.7395    128.0998     75.4064     22.4478      3.0000     50.5974      0.1523      0.1406      2.4181      0.6294      0.7305  13261.4785      0.3193   7806.4160
   9146.0000      5.6954    130.0270     76.2197     22.6025      3.0000     51.3097      0.1616      0.1485      2.4050      0.5939      0.7170  13119.9707      0.3230   7690.7080
   9146.5000      5.6392    128.6641     75.7125     22.3003      3.0000     56.4532      0.1659      0.1576      2.3900      0.5354      0.7020  13207.8516      0.3095   7772.1753
   9147.0000      5.5841    131.7220     77.1952     23.9927      2.0000     53.0194      0.1714      0.1719      2.3663      0.5102      0.8670  12954.1719      0.2841   7591.7451
   9147.5000      5.6141    127.4157     75.3866     25.1647      2.0000     59.9781      0.1725      0.1768      2.3582      0.4666      0.8538  13264.9590      0.2733   7848.3252
   9148.0000      5.7046    127.3627     75.2772     21.9207      2.0000     50.9593      0.1711      0.1704      2.3688      0.5249      0.8718  13284.2334      0.2875   7851.5908
   9148.5000      5.7496    126.8133     74.9376     22.0847      2.0000     51.7752      0.1690      0.1628      2.3814      0.5432      0.8926  13344.4316      0.3036   7885.6055
   9149.0000      5.7688    126.9213     75.0449     27.7518      2.0000     64.5779      0.1641      0.1613      2.3838      0.4890      0.8966  13325.3506      0.2937   7878.8984
   9149.5000      5.7632    128.0529     75.5658     26.2687      2.0000     81.1598      0.1640      0.1625      2.3818      0.4320      0.8939  13233.4961      0.2899   7809.2720
   9150.0000      5.7638    128.1734     75.6435     26.6965      2.0000     63.6833      0.1663      0.1663      2.3756      0.4790      0.8844  13219.9014      0.2858   7801.9307
   9150.5000      5.7677    129.2081     76.1084     27.0859      2.0000     57.7816      0.1683      0.1690      2.3711      0.4960      0.8774  13139.1602      0.2837   7739.4546
   9151.0000      5.7625    129.4240     76.1972     26.3673      2.0000     65.4743      0.1675      0.1679      2.3730      0.4680      0.8807  13123.8477      0.2846   7726.5396
   9151.5000      5.7708    130.3185     76.5483     26.2477      2.0000     63.3224      0.1664      0.1647      2.3782      0.4846      0.8895  13063.6436      0.2906   7673.5049
   9152.0000      5.7468    133.0781     77.5341     28.1497      2.0000     54.6794      0.1764      0.1639      2.3796      0.5249      0.8922  12897.5449      0.3216   7514.3848
   9152.5000      5.7512    137.2126     79.0747     24.8907      2.0000     56.3669      0.1881      0.1652      2.3774      0.5129      0.8889  12646.2666      0.3509   7287.9624
   9153.0000      5.7724    136.1468     78.6690     23.6080      2.0000     52.2930      0.1928      0.1719      2.3663      0.5138      0.8712  12711.4814      0.3454   7345.0122
   9153.5000      5.7832    137.3105     79.2636     23.8831      2.0000     49.9749      0.1924      0.1773      2.3574      0.5111      0.8566  12616.1270      0.3289   7282.7627
   9154.0000      5.8316    140.1988     80.4603     27.6904      2.0000     42.9879      0.1966      0.1819      2.3499      0.5394      0.8441  12428.4902      0.3279   7132.7300
   9154.5000      5.9111    142.6380     81.2304     31.7591      2.0000     30.2937      0.2062      0.1806      2.3520      0.6496      0.8481  12310.6562      0.3588   7010.7549
   9155.0000      5.9253    137.9173     79.1968     30.6018      2.0000     23.8637      0.2111      0.1795      2.3538      0.7382      0.8515  12626.7666      0.3758   7250.7236
   9155.5000      5.8514    136.9282     78.9456     30.7683      2.0000     21.6007      0.2033      0.1799      2.3532      0.7756      0.8509  12666.9502      0.3525   7303.0967
   9156.0000      5.7784    138.5105     79.6795     28.6360      2.0000     20.0220      0.1979      0.1787      2.3551      0.8112      0.8546  12550.2754      0.3406   7219.6709
   9156.5000      5.7279    136.8897     79.0243     27.5422      2.0000     22.8499      0.1914      0.1730      2.3646      0.7813      0.8710  12654.3389      0.3385   7305.1519
   9157.0000      5.7085    133.2055     77.3243     33.6970      2.0000     23.5066      0.1879      0.1610      2.3844      0.8227      0.9033  12932.5410      0.3627   7507.1953
   9157.5000      5.7835    132.0568     76.6432     32.6020      3.0000     24.5489      0.1814      0.1436      2.4131      0.8941      0.7278  13047.4736      0.3937   7572.4980
   9158.0000      5.8629    128.6866     75.1146     31.1438      3.0000     25.3116      0.1786      0.1354      2.4266      0.9295      0.7422  13312.9844      0.4092   7770.8179
   9158.5000      5.8933    131.8892     76.5806     30.2131      3.0000     31.1956      0.1809      0.1435      2.4132      0.7911      0.7281  13058.1367      0.3924   7582.1245
   9159.0000      5.8667    132.9312     77.2723     28.9896      2.0000     32.7168      0.1898      0.1663      2.3756      0.6738      0.8908  12941.2520      0.3528   7522.6875
   9159.5000      5.8403    136.1323     78.7902     25.2957      2.0000     32.8211      0.2010      0.1868      2.3418      0.6044      0.8340  12691.9277      0.3262   7345.7930
   9160.0000      5.8347    139.7081     80.1541     26.7559      2.0000     30.0388      0.2110      0.1910      2.3349      0.6197      0.8222  12475.9629      0.3430   7157.7793
   9160.5000      5.8524    142.5147     81.1773     24.2701      2.0000     27.6616      0.2185      0.1928      2.3319      0.6409      0.8173  12318.7139      0.3593   7016.8193
   9161.0000      5.8547    143.7944     81.8086     21.1476      2.0000     26.4680      0.2193      0.1993      2.3212      0.6358      0.7985  12223.6592      0.3428   6954.3760
   9161.5000      5.8163    144.5831     82.3005     17.5833      2.0000     26.9146      0.2286      0.2170      2.2919      0.5825      0.7462  12150.5967      0.3187   6916.4395
   9162.0000      5.8933    145.6472     83.0346     18.4992      2.0000     26.1253      0.2235      0.2263      2.2765      0.5690      0.7191  12043.1660      0.2774   6865.9048
   9162.5000      5.9554    148.1610     83.9264     21.2002      2.0000     25.2816      0.2288      0.2266      2.2761      0.5781      0.7187  11915.2012      0.2921   6749.4141
   9163.0000      5.9396    148.6166     83.8878     21.5769      2.0000     24.7878      0.2373      0.2252      2.2785      0.5874      0.7231  11920.6797      0.3205   6728.7236
   9163.5000      5.9952    151.6613     85.0105     21.3966      2.0000     23.3173      0.2432      0.2282      2.2734      0.5986      0.7144  11763.2471      0.3286   6593.6406
   9164.0000      6.0239    151.8409     85.2820     19.5022      2.0000     22.3755      0.2385      0.2324      2.2666      0.6013      0.7025  11725.8047      0.3032   6585.8389
   9164.5000      5.9653    146.8781     83.6690     16.9277      2.0000     23.5131      0.2247      0.2340      2.2638      0.5824      0.6980  11951.8613      0.2590   6808.3657
   9165.0000      5.9431    149.0091     84.5760     17.1010      2.0000     23.4792      0.2163      0.2281      2.2736      0.5967      0.7155  11823.6924      0.2518   6711.0005
   9165.5000      5.8988    146.1414     83.2433     19.5112      2.0000     22.0712      0.2176      0.2209      2.2855      0.6344      0.7371  12012.9805      0.2761   6842.6860
   9166.0000      5.8489    149.0712     84.1551     18.9810      2.0000     21.8362      0.2210      0.2128      2.2988      0.6603      0.7615  11882.8154      0.3090   6708.2031
   9166.5000      5.9090    147.4636     83.6111     18.5354      2.0000     22.2330      0.2193      0.2153      2.2948      0.6473      0.7545  11960.1328      0.2972   6781.3359
   9167.0000      5.9541    144.7913     82.8379     17.2805      2.0000     23.2062      0.2097      0.2195      2.2878      0.6220      0.7422  12071.7744      0.2576   6906.4922
   9167.5000      5.8555    140.7315     81.3692     19.3576      2.0000     23.0172      0.1975      0.2168      2.2923      0.6319      0.7508  12289.6553      0.2306   7105.7280
   9168.0000      5.8384    135.0635     78.6784     25.8734      2.0000     19.4885      0.1952      0.1987      2.3221      0.7457      0.8051  12709.9707      0.2756   7403.9258
   9168.5000      5.9643    130.8270     76.1059     37.6132      2.0000     16.7879      0.2046      0.1659      2.3763      0.9512      0.8993  13139.5781      0.3963   7643.6836
   9169.0000      6.0068    127.5760     73.7235     49.3910      3.0000     15.8246      0.2215      0.1240      2.4454      1.0000      0.7653  13564.1885      0.5642   7838.4619
   9169.5000      5.9689    126.0336     72.3738     53.5467      3.0000     15.3212      0.2304      0.0903      2.5011      1.0000      0.8380  13817.1592      0.6860   7934.3906
   9170.0000      5.9547    124.5573     71.6010     50.1709      3.0000     15.0654      0.2229      0.0734      2.5290      1.0000      0.8868  13966.2900      0.7129   8028.4346
   9170.5000      5.9422    122.0160     70.4578     52.5971      3.0000     14.9434      0.2269      0.0736      2.5286      1.0000      0.8860  14192.8936      0.7237   8195.6445
   9171.0000      5.9436    122.1159     70.4407     52.4625      3.0000     14.7567      0.2306      0.0734      2.5289      1.0000      0.8868  14196.3311      0.7349   8188.9395
   9171.5000      5.9547    124.6969     71.4790     54.9743      3.0000     15.1392      0.2328      0.0719      2.5314      1.0000      0.8918  13990.1250      0.7453   8019.4434
   9172.0000      5.9762    126.6263     72.3813     55.9550      3.0000     15.5493      0.2232      0.0682      2.5375      1.0000      0.9049  13815.7305      0.7284   7897.2529
   9172.5000      6.0105    125.1718     72.0515     57.2945      3.0000     16.1679      0.2115      0.0739      2.5281      1.0000      0.8854  13878.9707      0.6789   7989.0190
   9173.0000      6.0348    124.9560     72.2318     57.2101      3.0000     16.4529      0.2002      0.0795      2.5188      1.0000      0.8679  13844.3271      0.6305   8002.8145
   9173.5000      6.0446    123.7568     71.9457     54.9752      3.0000     16.6900      0.1950      0.0884      2.5041      1.0000      0.8435  13899.3633      0.5901   8080.3657
   9174.0000      6.0501    123.5056     71.9417     57.2923      3.0000     17.1953      0.1890      0.0890      2.5032      1.0000      0.8421  13900.1445      0.5715   8096.7974
   9174.5000      6.0375    122.3955     71.4432     60.7439      3.0000     17.6235      0.1868      0.0857      2.5085      1.0000      0.8507  13997.1338      0.5744   8170.2324
   9175.0000      6.0087    123.0282     71.6882     56.9249      3.0000     18.1571      0.1810      0.0780      2.5212      1.0000      0.8727  13949.2998      0.5798   8128.2178
   9175.5000      5.9904    122.1494     71.2932     50.8939      3.0000     18.6835      0.1771      0.0733      2.5291      1.0000      0.8877  14026.5869      0.5822   8186.6943
   9176.0000      5.9842    122.4858     71.4704     51.3856      3.0000     19.0897      0.1748      0.0730      2.5295      1.0000      0.8887  13991.8125      0.5766   8164.2124
   9176.5000      5.9963    123.2167     71.8038     51.8367      3.0000     19.4228      0.1751      0.0743      2.5274      1.0000      0.8846  13926.8379      0.5738   8115.7842
   9177.0000      6.0091    122.9010     71.7505     46.5538      3.0000     20.7392      0.1738      0.0782      2.5210      1.0000      0.8726  13937.1934      0.5588   8136.6328
   9177.5000      6.0245    122.7423     71.8423     42.5380      3.0000     22.3931      0.1721      0.0866      2.5071      1.0000      0.8489  13919.3730      0.5301   8147.1523
   9178.0000      6.0167    123.0053     72.0655     40.4672      3.0000     22.1379      0.1733      0.0945      2.4941      1.0000      0.8291  13876.2705      0.5107   8129.7329
   9178.5000      5.9907    123.1967     72.1331     45.5947      3.0000     20.6300      0.1752      0.0955      2.4924      1.0000      0.8269  13863.2607      0.5135   8117.1006
   9179.0000      5.9705    123.6929     72.0904     49.0177      3.0000     18.0680      0.1832      0.0875      2.5057      1.0000      0.8469  13871.4707      0.5594   8084.5396
   9179.5000      5.9589    128.8091     73.5158     55.2716      3.0000     15.6877      0.2192      0.0784      2.5206      1.0000      0.8723  13602.5166      0.6881   7763.4238
   9180.0000      5.9588    131.9589     74.1216     58.9373      3.0000     13.4835      0.2529      0.0720      2.5312      1.0000      0.8927  13491.3486      0.8025   7578.1191
   9180.5000      5.9558    132.6250     74.0919     60.1132      3.0000     12.4287      0.2699      0.0716      2.5319      1.0000      0.8941  13496.7441      0.8524   7540.0591
   9181.0000      5.9605    134.6398     75.0606     64.3827      3.0000     12.6853      0.2604      0.0727      2.5301      1.0000      0.8906  13322.5664      0.8220   7427.2266
   9181.5000      5.9404    132.4729     74.5483     62.0192      3.0000     13.7471      0.2382      0.0705      2.5337      1.0000      0.8981  13414.1133      0.7648   7548.7148
   9182.0000      5.9324    130.6882     74.2327     62.8420      3.0000     15.0303      0.2119      0.0680      2.5378      1.0000      0.9068  13471.1582      0.6969   7651.7979
   9182.5000      5.9546    127.7523     73.4008     60.5261      3.0000     15.7824      0.1913      0.0700      2.5345      1.0000      0.8998  13623.8291      0.6323   7827.6450
   9183.0000      6.0011    124.8266     72.3586     58.2171      3.0000     16.9409      0.1833      0.0739      2.5280      1.0000      0.8868  13820.0547      0.5984   8011.1152
   9183.5000      6.0338    123.5084     71.8512     58.3648      3.0000     17.6833      0.1841      0.0784      2.5207      1.0000      0.8731  13917.6484      0.5880   8096.6152
   9184.0000      6.0348    123.9401     71.9985     57.7582      3.0000     18.5692      0.1869      0.0787      2.5201      1.0000      0.8722  13889.1846      0.5947   8068.4111
   9184.5000      6.0248    123.2379     71.7643     58.3375      3.0000     18.2646      0.1875      0.0836      2.5120      1.0000      0.8583  13934.5059      0.5825   8114.3887
   9185.0000      6.0179    124.2966     72.4020     51.9463      3.0000     18.4782      0.1827      0.0900      2.5014      1.0000      0.8415  13811.7773      0.5506   8045.2734
   9185.5000      6.0241    126.4379     73.3958     48.5483      3.0000     18.1596      0.1847      0.0966      2.4906      1.0000      0.8257  13624.7607      0.5374   7909.0234
   9186.0000      6.0346    130.1326     75.0013     46.9131      3.0000     19.2634      0.1833      0.0980      2.4883      1.0000      0.8226  13333.1113      0.5294   7684.4717
   9186.5000      6.0054    133.4388     76.2287     43.5767      3.0000     18.7952      0.1903      0.0971      2.4898      1.0000      0.8249  13118.4219      0.5520   7494.0728
   9187.0000      5.9798    135.9693     77.3197     45.4683      3.0000     18.9986      0.1906      0.1010      2.4833      1.0000      0.8160  12933.3164      0.5415   7354.5996
   9187.5000      6.0315    137.4064     77.8893     44.3358      3.0000     18.9109      0.1977      0.1078      2.4722      1.0000      0.8016  12838.7295      0.5426   7277.6807
   9188.0000      6.0617    136.0410     77.5034     41.2108      3.0000     18.8886      0.1943      0.1132      2.4632      1.0000      0.7906  12902.6572      0.5172   7350.7256
   9188.5000      6.0802    135.2389     77.1503     41.8083      3.0000     18.0233      0.1979      0.1153      2.4597      1.0000      0.7866  12961.7129      0.5217   7394.3203
   9189.0000      6.0716    135.1382     77.1532     50.2504      3.0000     16.9160      0.1979      0.1177      2.4558      1.0000      0.7820  12961.2178      0.5148   7399.8311
   9189.5000      6.0352    132.7405     76.1404     57.7154      3.0000     16.8139      0.1981      0.1162      2.4583      1.0000      0.7851  13133.6377      0.5198   7533.4951
   9190.0000      6.0141    130.4556     75.0312     59.3042      3.0000     17.6032      0.2005      0.1091      2.4700      1.0000      0.7994  13327.7803      0.5467   7665.4409
   9190.5000      6.0091    129.5615     74.6145     60.9241      3.0000     17.9353      0.1969      0.1029      2.4802      1.0000      0.8126  13402.2119      0.5543   7718.3403
   9191.0000      6.0321    131.3574     75.3627     54.2665      3.0000     19.2875      0.1997      0.1059      2.4752      1.0000      0.8063  13269.1719      0.5538   7612.8164
   9191.5000      6.0819    128.7582     74.5161     48.3501      3.0000     21.9915      0.1936      0.1136      2.4626      1.0000      0.7907  13419.9131      0.5142   7766.4971
   9192.0000      6.1313    132.1616     76.1556     42.2679      3.0000     24.8146      0.1890      0.1214      2.4497      1.0000      0.7757  13131.0146      0.4789   7566.4956
   9192.5000      6.1630    129.2919     75.1302     41.5845      3.0000     25.5798      0.1813      0.1240      2.4454      1.0000      0.7709  13310.2197      0.4494   7734.4360
   9193.0000      6.1672    125.6953     73.6667     40.9267      3.0000     26.6389      0.1750      0.1225      2.4478      0.9927      0.7739  13574.6572      0.4356   7955.7490
   9193.5000      6.1075    123.0560     72.6186     39.3916      3.0000     30.7670      0.1659      0.1200      2.4520      0.9400      0.7788  13770.5830      0.4169   8126.3784
   9194.0000      6.0001    121.8347     72.1143     36.9161      3.0000     33.7888      0.1599      0.1163      2.4580      0.9218      0.7860  13866.8789      0.4101   8207.8389
   9194.5000      5.9276    122.3356     72.2893     35.5768      3.0000     36.1224      0.1611      0.1146      2.4610      0.9035      0.7895  13833.3105      0.4186   8174.2383
   9195.0000      5.8683    124.7132     73.2507     36.3035      3.0000     42.0590      0.1675      0.1157      2.4590      0.8278      0.7874  13651.7490      0.4337   8018.3960
   9195.5000      5.8252    130.7909     75.6977     32.2163      3.0000     49.7827      0.1902      0.1291      2.4370      0.6864      0.7624  13210.4326      0.4601   7645.7939
   9196.0000      5.7765    134.5838     77.5159     33.5873      3.0000     60.5028      0.2049      0.1571      2.3908      0.5182      0.7147  12900.5791      0.4225   7430.3125
   9196.5000      5.7466    140.7877     80.3500     28.6847      2.0000     77.9157      0.2247      0.1924      2.3326      0.3775      0.8478  12445.5547      0.3780   7102.8955
   9197.0000      5.7637    142.8676     81.6982     25.0172      2.0000     67.8160      0.2244      0.2171      2.2918      0.3626      0.7711  12240.1748      0.3066   6999.4883
   9197.5000      5.7574    146.0096     83.1894     25.4528      2.0000     70.7541      0.2277      0.2311      2.2688      0.3350      0.7277  12020.7637      0.2762   6848.8643
   9198.0000      5.7599    143.5608     82.3041     26.4719      2.0000     63.7297      0.2208      0.2291      2.2720      0.3562      0.7342  12150.0645      0.2621   6965.6890
   9198.5000      5.8456    141.3631     81.3946     25.2077      2.0000     48.8891      0.2159      0.2237      2.2808      0.4171      0.7515  12285.8281      0.2634   7073.9844
   9199.0000      5.9288    135.1441     78.7187     28.9573      2.0000     36.8828      0.2051      0.2089      2.3053      0.5133      0.7986  12703.4609      0.2747   7399.5078
   9199.5000      6.0015    132.3400     77.3372     42.2405      2.0000     29.3722      0.1886      0.1824      2.3491      0.6541      0.8805  12930.3965      0.3035   7556.2954
   9200.0000      6.0336    126.2931     74.2969     48.0070      3.0000     23.2552      0.1743      0.1438      2.4127      0.9181      0.7379  13459.5098      0.3727   7918.0908
   9200.5000      6.0394    123.2209     72.3232     50.2805      3.0000     21.9297      0.1731      0.1045      2.4776      1.0000      0.8117  13826.8281      0.4818   8115.5039
   9201.0000      6.0314    121.0836     71.0319     51.8288      3.0000     21.1778      0.1726      0.0819      2.5149      1.0000      0.8662  14078.1807      0.5449   8258.7539
   9201.5000      6.0205    123.6912     72.0572     50.0267      3.0000     22.4436      0.1729      0.0751      2.5261      1.0000      0.8860  13877.8564      0.5652   8084.6494
   9202.0000      5.9548    127.8625     73.9424     49.5102      3.0000     24.6142      0.1751      0.0835      2.5122      1.0000      0.8618  13524.0381      0.5472   7820.9033
   9202.5000      5.9013    130.9586     75.3753     47.6342      3.0000     28.6043      0.1872      0.1037      2.4790      1.0000      0.8139  13266.9502      0.5244   7635.9980
   9203.0000      5.9054    135.5516     77.5527     40.6531      3.0000     36.1813      0.2043      0.1367      2.4244      0.7667      0.7509  12894.4521      0.4786   7377.2656
   9203.5000      5.9028    137.5930     78.6617     35.2031      2.0000     46.5781      0.2245      0.1719      2.3664      0.5453      0.9139  12712.6641      0.4361   7267.8096
   9204.0000      5.8661    137.6143     79.1299     31.6002      2.0000     76.8970      0.2345      0.2059      2.3102      0.3570      0.8126  12637.4561      0.3673   7266.6865
   9204.5000      5.8316    140.7078     80.9790     28.6923      2.0000     83.4800      0.2294      0.2301      2.2704      0.3089      0.7361  12348.8730      0.2838   7106.9268
   9205.0000      5.8531    139.1863     80.7157     28.8045      2.0000     52.0858      0.2137      0.2325      2.2663      0.3896      0.7287  12389.1709      0.2318   7184.6172
   9205.5000      5.9128    136.4597     79.4182     32.5270      2.0000     36.7244      0.1940      0.2052      2.3114      0.5230      0.8162  12591.5664      0.2535   7328.1719
   9206.0000      5.9731    132.6611     77.2352     36.2033      2.0000     31.9546      0.1814      0.1622      2.3823      0.6979      0.9408  12947.4570      0.3406   7538.0029
   9206.5000      5.9714    130.7402     76.0247     37.2627      3.0000     31.7075      0.1739      0.1326      2.4312      0.8438      0.7592  13153.6270      0.4035   7648.7593
   9207.0000      5.9318    130.7945     76.0395     35.1593      3.0000     33.0698      0.1708      0.1291      2.4370      0.8467      0.7656  13151.0664      0.4049   7645.5830
   9207.5000      5.8880    131.1770     76.3172     31.2714      3.0000     35.5977      0.1826      0.1474      2.4068      0.7214      0.7340  13103.2031      0.3864   7623.2856
   9208.0000      5.8508    131.7692     76.7458     31.4289      2.0000     49.6325      0.1918      0.1665      2.3752      0.5436      0.9322  13030.0293      0.3581   7589.0273
   9208.5000      5.8298    131.1682     76.7395     28.1337      2.0000     50.2565      0.1918      0.1804      2.3523      0.5016      0.8952  13031.0928      0.3184   7623.7988
   9209.0000      5.7883    130.1263     76.5311     24.3456      2.0000     47.5028      0.1817      0.1837      2.3469      0.5078      0.8861  13066.5771      0.2801   7684.8418
   9209.5000      5.7440    128.7336     75.9569     27.4653      2.0000     39.9591      0.1761      0.1799      2.3532      0.5656      0.8977  13165.3564      0.2748   7767.9810
   9210.0000      5.7997    126.7364     74.8435     29.7409      2.0000     33.0709      0.1754      0.1656      2.3768      0.6728      0.9365  13361.2100      0.3137   7890.3940
   9210.5000      5.9055    126.3298     74.3907     32.5755      3.0000     30.1777      0.1730      0.1471      2.4072      0.7865      0.7354  13442.5371      0.3595   7915.7871
   9211.0000      5.9708    124.1503     73.1989     34.2814      3.0000     24.8311      0.1708      0.1309      2.4340      0.9682      0.7635  13661.4082      0.3998   8054.7529
   9211.5000      6.0054    122.8441     72.4077     38.1886      3.0000     21.9684      0.1695      0.1164      2.4580      1.0000      0.7906  13810.6797      0.4374   8140.3970
   9212.0000      6.0075    122.4809     72.0054     42.0106      3.0000     21.8581      0.1712      0.1030      2.4800      1.0000      0.8178  13887.8467      0.4804   8164.5400
   9212.5000      5.9887    121.7722     71.4492     40.9487      3.0000     20.0097      0.1736      0.0900      2.5014      1.0000      0.8475  13995.9512      0.5243   8212.0527
   9213.0000      5.9580    124.0688     72.2352     44.8469      3.0000     18.3573      0.1776      0.0807      2.5168      1.0000      0.8718  13843.6689      0.5625   8060.0439
   9213.5000      5.9149    123.0328     71.5800     51.0330      3.0000     17.5838      0.1851      0.0752      2.5259      1.0000      0.8879  13970.3896      0.5997   8127.9155
   9214.0000      5.8449    125.2127     72.2922     48.9852      3.0000     17.2320      0.1938      0.0701      2.5343      1.0000      0.9040  13832.7539      0.6390   7986.4087
   9214.5000      5.8978    125.6562     72.4673     47.7980      3.0000     16.6357      0.1959      0.0714      2.5322      1.0000      0.9000  13799.3184      0.6415   7958.2217
   9215.0000      5.9708    126.1746     72.8013     47.8739      3.0000     16.1518      0.1923      0.0748      2.5266      1.0000      0.8894  13736.0244      0.6213   7925.5264
   9215.5000      5.9526    126.4168     72.9585     49.6527      3.0000     15.7201      0.1942      0.0801      2.5179      1.0000      0.8742  13706.4287      0.6118   7910.3408
   9216.0000      5.9480    127.0705     73.2078     45.8784      3.0000     15.2053      0.1995      0.0838      2.5117      1.0000      0.8641  13659.7549      0.6161   7869.6484
   9216.5000      5.9563    129.2178     73.9205     46.4823      3.0000     14.4584      0.2127      0.0861      2.5080      1.0000      0.8584  13528.0498      0.6476   7738.8701
   9217.0000      5.9407    130.0824     74.0710     50.9931      3.0000     13.8062      0.2242      0.0854      2.5091      1.0000      0.8603  13500.5576      0.6824   7687.4336
   9217.5000      5.9301    130.9975     74.3071     55.7358      3.0000     13.1261      0.2330      0.0860      2.5081      1.0000      0.8587  13457.6562      0.7057   7633.7334
   9218.0000      5.9314    131.6351     74.6468     54.7173      3.0000     12.6936      0.2327      0.0905      2.5006      1.0000      0.8476  13396.4209      0.6918   7596.7549
   9218.5000      5.9288    130.0712     74.0943     56.2271      3.0000     12.3522      0.2322      0.0950      2.4933      1.0000      0.8373  13496.3154      0.6777   7688.1001
   9219.0000      5.9372    133.8319     75.4243     57.1734      3.0000     11.8198      0.2427      0.0945      2.4941      1.0000      0.8385  13258.3320      0.7090   7472.0620
   9219.5000      5.9673    134.5736     75.4003     56.8631      3.0000     11.2830      0.2561      0.0896      2.5021      1.0000      0.8502  13262.5459      0.7612   7430.8784
   9220.0000      6.0017    135.5900     75.6129     55.4182      3.0000     10.8013      0.2618      0.0847      2.5102      1.0000      0.8626  13225.2588      0.7917   7375.1753
   9220.5000      6.0277    136.8853     75.9702     55.7909      3.0000     10.7762      0.2678      0.0826      2.5138      1.0000      0.8684  13163.0586      0.8149   7305.3848
   9221.0000      6.0261    139.5516     76.9027     60.9106      3.0000     10.7367      0.2687      0.0789      2.5198      1.0000      0.8785  13003.4434      0.8280   7165.8062
   9221.5000      6.0143    141.7980     77.5791     62.6882      3.0000     10.7479      0.2825      0.0837      2.5118      1.0000      0.8655  12890.0664      0.8535   7052.2837
   9222.0000      5.9826    144.9579     78.2925     66.9343      3.0000      9.9755      0.3093      0.0868      2.5068      1.0000      0.8579  12772.6123      0.9216   6898.5566
   9222.5000      5.9157    145.5908     78.5696     69.5287      3.0000      9.1832      0.3108      0.0910      2.4999      1.0000      0.8477  12727.5713      0.9137   6868.5649
   9223.0000      5.8796    143.9562     78.3798     70.0837      3.0000      9.5462      0.2884      0.0901      2.5013      1.0000      0.8499  12758.3955      0.8522   6946.5557
   9223.5000      5.8748    142.4249     78.6458     61.8009      3.0000     11.5389      0.2441      0.0904      2.5009      1.0000      0.8494  12715.2354      0.7248   7021.2466
   9224.0000      5.9154    137.7850     77.4176     49.6128      3.0000     13.9548      0.2156      0.0918      2.4985      1.0000      0.8460  12916.9590      0.6393   7257.6860
   9224.5000      5.9740    131.5896     75.2321     43.2483      3.0000     15.8398      0.2035      0.0966      2.4907      1.0000      0.8353  13292.2031      0.5911   7599.3818
   9225.0000      5.9936    129.4065     74.4447     40.8887      3.0000     16.5574      0.2021      0.1019      2.4818      1.0000      0.8237  13432.7979      0.5718   7727.5874
   9225.5000      5.9837    127.4440     73.5862     44.4706      3.0000     15.9954      0.2034      0.1011      2.4832      1.0000      0.8257  13589.5068      0.5780   7846.5840
   9226.0000      5.9684    126.8249     73.1058     51.2010      3.0000     15.3823      0.2035      0.0879      2.5049      1.0000      0.8560  13678.8018      0.6160   7884.8896
   9226.5000      5.9654    124.4120     71.8382     52.9240      3.0000     14.6624      0.2069      0.0761      2.5245      1.0000      0.8879  13920.1719      0.6594   8037.8125
   9227.0000      5.9717    123.4942     71.2126     54.5416      3.0000     14.0764      0.2107      0.0652      2.5424      1.0000      0.9233  14042.4492      0.7016   8097.5454
   9227.5000      5.9882    123.9524     71.2239     52.7211      3.0000     13.6775      0.2159      0.0587      2.5531      1.0000      0.9485  14040.2236      0.7347   8067.6133
   9228.0000      6.0045    127.1749     72.3751     50.2829      3.0000     14.0120      0.2195      0.0501      2.5673      1.0000      0.9896  13816.9053      0.7696   7863.1895
   9228.5000      6.0170    130.8977     73.8512     51.1690      3.0000     14.1645      0.2195      0.0477      2.5712      1.0000      1.0029  13540.7324      0.7764   7639.5518
   9229.0000      6.0271    139.5407     77.3981     47.8050      3.0000     15.2457      0.2209      0.0588      2.5529      1.0000      0.9482  12920.2139      0.7489   7166.3677
   9229.5000      6.0271    141.7001     78.8670     35.0073      3.0000     17.0664      0.2182      0.0909      2.5000      1.0000      0.8497  12679.5791      0.6495   7057.1572
   9230.0000      6.0138    143.2338     80.3727     32.8434      3.0000     18.0506      0.2106      0.1306      2.4346      1.0000      0.7702  12442.0361      0.5144   6981.5918
   9230.5000      6.0032    145.6491     81.9476     38.9617      3.0000     16.5463      0.2030      0.1543      2.3954      1.0000      0.7300  12202.9238      0.4249   6865.8174
   9231.0000      6.0123    143.1710     80.9192     42.3572      3.0000     16.6316      0.1987      0.1473      2.4069      1.0000      0.7418  12358.0078      0.4326   6984.6562
   9231.5000      6.0393    141.8926     80.1175     37.1673      3.0000     18.6637      0.1992      0.1328      2.4308      1.0000      0.7667  12481.6611      0.4754   7047.5859
   9232.0000      6.0358    139.1546     78.8979     30.4715      3.0000     19.7572      0.2028      0.1294      2.4364      1.0000      0.7729  12674.6133      0.4952   7186.2510
   9232.5000      6.0182    138.0837     78.5946     34.8943      3.0000     19.4933      0.2013      0.1346      2.4279      1.0000      0.7639  12723.5244      0.4762   7241.9863
   9233.0000      5.9940    134.8473     77.2280     42.9657      3.0000     18.1681      0.2042      0.1347      2.4278      1.0000      0.7641  12948.6719      0.4845   7415.7969
   9233.5000      5.9450    134.8837     77.1053     47.9045      3.0000     16.6250      0.2096      0.1325      2.4314      1.0000      0.7680  12969.2773      0.5061   7413.7969
   9234.0000      5.8482    132.5182     75.9479     49.3630      3.0000     14.9769      0.2143      0.1266      2.4411      1.0000      0.7787  13166.9150      0.5363   7546.1328
   9234.5000      5.8120    131.0721     75.0715     44.9703      3.0000     14.0255      0.2162      0.1123      2.4647      1.0000      0.8056  13320.6377      0.5826   7629.3901
   9235.0000      5.8414    131.7414     75.1187     42.9335      3.0000     14.1098      0.2125      0.0954      2.4926      1.0000      0.8409  13312.2715      0.6202   7590.6299
   9235.5000      5.8502    130.2758     74.3163     47.7831      3.0000     14.0346      0.2167      0.0878      2.5052      1.0000      0.8589  13455.9951      0.6542   7676.0225
   9236.0000      5.8371    129.5717     74.1930     52.6503      3.0000     14.1249      0.2138      0.0947      2.4938      1.0000      0.8428  13478.3613      0.6261   7717.7334
   9236.5000      5.8330    129.3494     74.1873     54.1871      3.0000     14.3517      0.2137      0.0997      2.4854      1.0000      0.8318  13479.3955      0.6114   7731.0000
   9237.0000      5.8324    131.0877     74.8968     56.2254      3.0000     14.6559      0.2101      0.0957      2.4921      1.0000      0.8408  13351.7100      0.6125   7628.4814
   9237.5000      5.8459    128.6000     73.7309     54.9114      3.0000     14.5966      0.2073      0.0846      2.5104      1.0000      0.8673  13562.8271      0.6362   7776.0518
   9238.0000      5.8750    124.9728     72.0261     55.7812      3.0000     14.6778      0.2100      0.0761      2.5245      1.0000      0.8904  13883.8604      0.6684   8001.7383
   9238.5000      5.8843    127.4114     72.9084     55.6594      3.0000     14.3965      0.2130      0.0704      2.5338      1.0000      0.9076  13715.8330      0.6932   7848.5933
   9239.0000      5.8681    130.3924     74.1306     47.7220      3.0000     14.9833      0.2145      0.0716      2.5318      1.0000      0.9039  13489.7002      0.6938   7669.1602
   9239.5000      5.8519    129.1884     74.0169     39.0583      3.0000     19.3302      0.2061      0.0859      2.5082      1.0000      0.8645  13510.4229      0.6290   7740.6343
   9240.0000      5.8424    128.6521     74.5383     31.2836      3.0000     31.0400      0.1915      0.1154      2.4595      0.9697      0.8014  13415.9141      0.5029   7772.9023
   9240.5000      5.8388    125.5622     74.0820     27.1394      3.0000     47.1304      0.1700      0.1457      2.4095      0.6313      0.7479  13498.5566      0.3550   7964.1816
   9241.0000      5.8591    124.7085     74.0764     27.4700      2.0000     64.6521      0.1626      0.1605      2.3852      0.4910      0.9768  13499.5791      0.2916   8018.6982
   9241.5000      5.8911    125.6821     74.3976     32.1292      3.0000     55.3251      0.1662      0.1575      2.3901      0.5411      0.7288  13441.2930      0.3105   7956.5811
   9242.0000      5.9183    124.7955     73.7855     34.3531      3.0000     38.0914      0.1700      0.1482      2.4054      0.6931      0.7443  13552.7930      0.3478   8013.1104
   9242.5000      5.9508    125.2565     73.7191     36.0539      3.0000     28.4643      0.1719      0.1341      2.4288      0.8831      0.7686  13565.0029      0.3938   7983.6167
   9243.0000      5.9757    125.7155     73.6711     38.5460      3.0000     22.5517      0.1745      0.1217      2.4491      1.0000      0.7907  13573.8447      0.4365   7954.4678
   9243.5000      5.9971    126.1887     73.5990     41.4777      3.0000     17.7828      0.1821      0.1127      2.4640      1.0000      0.8078  13587.1387      0.4839   7924.6387
   9244.0000      6.0149    130.7552     75.2624     43.7292      3.0000     15.1235      0.1914      0.1062      2.4748      1.0000      0.8208  13286.8438      0.5292   7647.8779
   9244.5000      6.0194    128.8882     74.3589     45.0281      3.0000     14.5023      0.1909      0.0985      2.4875      1.0000      0.8371  13448.2861      0.5498   7758.6636
   9245.0000      6.0176    131.5509     75.2141     41.9703      3.0000     15.6273      0.1933      0.0863      2.5076      1.0000      0.8651  13295.3750      0.5915   7601.6221
   9245.5000      6.0336    133.1170     75.8649     42.8233      3.0000     16.7186      0.1888      0.0824      2.5140      1.0000      0.8749  13181.3291      0.5896   7512.1904
   9246.0000      6.0675    127.8814     73.8370     45.0678      3.0000     18.1721      0.1888      0.0904      2.5008      1.0000      0.8555  13543.3525      0.5666   7819.7476
   9246.5000      6.0867    126.2287     73.3804     43.3112      3.0000     21.3314      0.1859      0.1023      2.4812      1.0000      0.8297  13627.6201      0.5245   7922.1309
   9247.0000      6.0733    128.0056     74.2708     44.0409      3.0000     20.6545      0.1816      0.1060      2.4751      1.0000      0.8223  13464.2334      0.5016   7812.1572
   9247.5000      6.0504    128.4053     74.3813     45.3450      3.0000     18.0879      0.1773      0.0982      2.4880      1.0000      0.8387  13444.2305      0.5118   7787.8433
   9248.0000      6.0482    126.8840     73.5516     46.0163      3.0000     16.6239      0.1776      0.0875      2.5057      1.0000      0.8631  13595.8906      0.5433   7881.2134
   9248.5000      6.0533    126.7175     73.3523     48.5703      3.0000     16.4427      0.1782      0.0803      2.5176      1.0000      0.8814  13632.8447      0.5655   7891.5713
   9249.0000      6.0733    125.3745     72.8394     49.6771      3.0000     16.8361      0.1765      0.0822      2.5143      1.0000      0.8765  13728.8389      0.5550   7976.1045
   9249.5000      6.0955    124.2907     72.4739     48.3053      3.0000     17.0709      0.1753      0.0872      2.5061      1.0000      0.8643  13798.0732      0.5373   8045.6538
   9250.0000      6.0846    123.3306     72.1830     46.6901      3.0000     17.4360      0.1715      0.0913      2.4994      1.0000      0.8549  13853.6719      0.5151   8108.2856
   9250.5000      6.0438    122.2041     71.5878     49.4289      3.0000     17.9383      0.1721      0.0854      2.5091      1.0000      0.8689  13968.8604      0.5334   8183.0342
   9251.0000      6.0222    125.8825     73.0141     49.3350      3.0000     18.5624      0.1698      0.0730      2.5296      1.0000      0.9025  13695.9766      0.5624   7943.9170
   9251.5000      6.0463    128.3623     74.0435     46.0295      3.0000     19.4063      0.1705      0.0724      2.5306      1.0000      0.9043  13505.5713      0.5660   7790.4473
   9252.0000      6.1491    129.2944     74.5425     43.9291      3.0000     20.2819      0.1713      0.0797      2.5185      1.0000      0.8839  13415.1582      0.5476   7734.2891
   9252.5000      6.3078    131.9927     75.8707     41.5394      3.0000     21.4058      0.1763      0.0965      2.4907      1.0000      0.8439  13180.3115      0.5135   7576.1792
   9253.0000      6.3961    131.2113     75.6274     43.5398      3.0000     21.9188      0.1782      0.1031      2.4799      1.0000      0.8304  13222.7217      0.5003   7621.2949
   9253.5000      6.3419    129.7709     74.9288     43.0432      3.0000     21.1755      0.1827      0.1020      2.4818      1.0000      0.8328  13345.9961      0.5163   7705.8906
   9254.0000      6.1624    129.4248     74.6095     43.7404      3.0000     19.7296      0.1823      0.0913      2.4993      1.0000      0.8560  13403.1191      0.5456   7726.4971
   9254.5000      6.0137    129.0962     74.1320     44.6953      3.0000     17.9344      0.1877      0.0766      2.5236      1.0000      0.8929  13489.4521      0.6030   7746.1602
   9255.0000      5.9995    128.7905     73.6466     51.1201      3.0000     16.0494      0.1987      0.0662      2.5407      1.0000      0.9245  13578.3613      0.6643   7764.5449
   9255.5000      6.0800    128.8222     73.3178     56.2319      3.0000     14.6820      0.2139      0.0608      2.5497      1.0000      0.9438  13639.2461      0.7232   7762.6353
   9256.0000      6.1099    129.8378     73.5143     64.7983      3.0000     14.0196      0.2221      0.0559      2.5578      1.0000      0.9637  13602.7881      0.7607   7701.9155
   9256.5000      6.0649    132.3874     74.4176     69.1812      3.0000     13.8991      0.2223      0.0489      2.5693      1.0000      0.9966  13437.6758      0.7812   7553.5874
   9257.0000      6.0229    134.3329     75.0700     64.9865      3.0000     13.2976      0.2226      0.0424      2.5800      1.0000      1.0346  13320.8994      0.8003   7444.1914
   9257.5000      6.0863    135.6192     75.6464     65.2350      3.0000     13.4598      0.2198      0.0441      2.5773      1.0000      1.0242  13219.3984      0.7878   7373.5879
   9258.0000      6.1786    135.3039     75.6028     62.1868      3.0000     13.3115      0.2189      0.0476      2.5714      1.0000      1.0032  13227.0293      0.7750   7390.7695
   9258.5000      6.2412    134.2945     75.2272     60.5449      3.0000     13.8761      0.2204      0.0503      2.5670      1.0000      0.9893  13293.0693      0.7718   7446.3203
   9259.0000      6.2757    133.5541     74.9708     63.9910      3.0000     13.6659      0.2205      0.0525      2.5633      1.0000      0.9787  13338.5273      0.7658   7487.6030
   9259.5000      6.2673    132.3102     74.6317     63.9012      3.0000     13.6916      0.2166      0.0576      2.5550      1.0000      0.9568  13399.1318      0.7399   7557.9956
   9260.0000      6.2059    132.5428     74.7467     62.9001      3.0000     13.7120      0.2193      0.0616      2.5484      1.0000      0.9416  13378.5107      0.7362   7544.7300
   9260.5000      6.1602    131.9614     74.4500     65.9886      3.0000     13.5645      0.2224      0.0610      2.5494      1.0000      0.9439  13431.8369      0.7470   7577.9741
   9261.0000      6.1646    131.3896     74.1323     67.5647      3.0000     13.6576      0.2256      0.0588      2.5529      1.0000      0.9521  13489.3926      0.7620   7610.9526
   9261.5000      6.1315    130.5300     73.8132     69.1846      3.0000     13.7646      0.2210      0.0558      2.5579      1.0000      0.9644  13547.7090      0.7578   7661.0742
   9262.0000      6.1217    129.7537     73.4992     65.5506      3.0000     14.0722      0.2185      0.0534      2.5619      1.0000      0.9751  13605.5820      0.7575   7706.9102
   9262.5000      6.3178    129.0524     73.4000     65.8614      3.0000     14.1557      0.2033      0.0494      2.5685      1.0000      0.9942  13623.9824      0.7255   7748.7935
   9263.0000      6.3693    127.8045     73.0332     64.0773      3.0000     15.0684      0.1982      0.0533      2.5621      1.0000      0.9755  13692.3955      0.6998   7824.4507
   9263.5000      6.2514    126.3162     72.3850     65.7757      3.0000     15.0685      0.1977      0.0510      2.5659      1.0000      0.9863  13815.0205      0.7050   7916.6436
   9264.0000      6.2412    128.0105     73.0377     68.7594      3.0000     13.9334      0.2008      0.0509      2.5659      1.0000      0.9864  13691.5674      0.7139   7811.8623
   9264.5000      6.2490    127.1251     72.5092     72.0179      3.0000     13.6451      0.2087      0.0489      2.5694      1.0000      0.9967  13791.3486      0.7424   7866.2656
   9265.0000      6.2796    127.9160     72.8573     76.0095      3.0000     13.2912      0.2076      0.0491      2.5689      1.0000      0.9954  13725.4521      0.7385   7817.6333
   9265.5000      6.3391    128.5444     72.9727     76.5605      3.0000     13.0324      0.2116      0.0444      2.5768      1.0000      1.0217  13703.7578      0.7635   7779.4131
   9266.0000      6.4577    128.8267     72.9983     81.7784      3.0000     12.3227      0.2093      0.0366      2.5896      1.0000      1.0766  13698.9512      0.7790   7762.3657
   9266.5000      6.5525    132.5793     74.1699     90.5497      3.0000     11.8539      0.2179      0.0253      2.6083      1.0000      1.2089  13482.5557      0.8361   7542.6533
   9267.0000      6.5234    133.2106     74.0869    111.3438      3.0000     11.4846      0.2296      0.0173      2.6214      1.0000      1.3967  13497.6641      0.8921   7506.9102
   9267.5000      6.5298    134.2121     74.3007    132.0775      3.0000     11.2354      0.2357      0.0131      2.6284      1.0000      1.5837  13458.8193      0.9216   7450.8955
   9268.0000      6.5761    133.8164     74.1807    133.2407      3.0000     11.1329      0.2343      0.0136      2.6275      1.0000      1.5536  13480.5938      0.9162   7472.9248
   9268.5000      6.4856    132.1436     73.6341    121.2595      3.0000     12.0043      0.2371      0.0227      2.6126      1.0000      1.2541  13580.6709      0.8983   7567.5278
   9269.0000      6.4236    130.5288     73.0326    116.4610      3.0000     12.2202      0.2403      0.0280      2.6037      1.0000      1.1659  13692.5166      0.8921   7661.1426
   9269.5000      6.3620    129.8795     72.6768    118.0164      3.0000     12.3285      0.2416      0.0233      2.6115      1.0000      1.2411  13759.5488      0.9093   7699.4429
   9270.0000      6.2616    128.2518     72.2473    105.8415      3.0000     12.8391      0.2159      0.0114      2.6311      1.0000      1.6896  13841.3389      0.8700   7797.1597
   9270.5000      6.2864    126.5905     71.8286    107.7802      3.0000     13.1405      0.1980      0.0096      2.6342      1.0000      1.8581  13922.0361      0.8239   7899.4854
   9271.0000      6.2316    125.3816     71.4428    112.3625      3.0000     14.7563      0.1964      0.0152      2.6250      1.0000      1.4729  13997.2158      0.8034   7975.6489
   9271.5000      6.0221    125.1100     71.2219     99.1787      3.0000     15.7365      0.2082      0.0202      2.6167      1.0000      1.3074  14040.6230      0.8229   7992.9668
   9272.0000      5.8854    127.0912     72.1239     80.6189      3.0000     17.9723      0.2139      0.0311      2.5987      1.0000      1.1269  13865.0352      0.8080   7868.3652
   9272.5000      5.8539    127.5386     72.7295     64.4002      3.0000     19.0070      0.2195      0.0627      2.5465      1.0000      0.9397  13749.5859      0.7337   7840.7666
   9273.0000      5.8686    125.5728     72.8007     57.2712      3.0000     21.9332      0.2112      0.1094      2.4695      1.0000      0.8261  13736.1396      0.5767   7963.5068
   9273.5000      5.9009    127.8718     74.6218     54.9672      3.0000     20.7232      0.1984      0.1469      2.4077      0.9552      0.7606  13400.9072      0.4331   7820.3345
   9274.0000      5.9130    126.4676     74.6102     52.7193      2.0000     19.5041      0.1892      0.1727      2.3651      0.8486      0.9874  13402.9932      0.3329   7907.1636
